#  Calculations performed with AESOPUS via the web interface: http://stev.oapd.inaf.it/aesopus
#  Date:  10/07/2019; Central European Time  21:48:37
#  Tables of Rosseland mean opacities
#  Reference paper: Marigo & Aringer (2009, A&A, 508, 1539)
#
#  Definitions:
#  The base-10 logarithm of the Rosseland mean opacity [cm**2/g] as a function
#  of log10(T) for columns of constant log10(R), where:
#  R=density[g/cm**3]/T6**3, T6=1.e-6*T[K]
#
#  Ranges of state parameters
#
#  log10(T) range: nt=  67  values from  4.500  to  3.200
#  log10(T) = [3.200,3.700] in steps of  0.010
#  log10(T) = ]3.700,4.500] in steps of  0.050
#
#  log10(R) range: nre= 91  values from -8.000  to  1.000
#                           in steps of  0.100
#
#
#  Composition parameters:
#
#       X     = hydrogen mass fraction
#               mh =  1 values from 0.700 to 0.700 in steps of 0.200
#       Zref  = 0.000000E+00  reference metallicity
#       Z     = actual metallicity
#
#       Reference solar mixture: Grevesse & Sauval 1998 ---- Zsun =  0.01696  (C/O)sun =  0.48978
#
#     Zi   element   (ni/nz)sun         (Xi/Z)sun         <Ai>
#
#      3     Li     9.323684E-09     3.757845E-09     6.941739E+00
#      4     Be     1.859891E-08     9.731966E-09     9.012183E+00
#      5     B      2.627166E-07     1.649247E-07     1.081222E+01
#      6     C      2.451814E-01     1.709837E-01     1.201114E+01
#      7     N      6.158679E-02     5.008508E-02     1.400676E+01
#      8     O      5.005962E-01     4.650221E-01     1.599938E+01
#      9     F      2.688361E-05     2.965430E-05     1.899841E+01
#     10     Ne     8.904049E-02     1.042809E-01     2.017132E+01
#     11     Na     1.583024E-03     2.113028E-03     2.298977E+01
#     12     Mg     2.814411E-02     3.972350E-02     2.430955E+01
#     13     Al     2.184679E-03     3.422452E-03     2.698154E+01
#     14     Si     2.627166E-02     4.284049E-02     2.808561E+01
#     15     P      2.086832E-04     3.752879E-04     3.097377E+01
#     16     S      1.583024E-02     2.947097E-02     3.206445E+01
#     17     Cl     2.341464E-04     4.820356E-04     3.545753E+01
#     18     Ar     1.859891E-03     4.313819E-03     3.994766E+01
#     19     K      9.758600E-05     2.215449E-04     3.910130E+01
#     20     Ca     1.696632E-03     3.947852E-03     4.007654E+01
#     21     Sc     1.094933E-06     2.857969E-06     4.495592E+01
#     22     Ti     7.753317E-05     2.155336E-04     4.787893E+01
#     23     V      7.404360E-06     2.189994E-05     5.094157E+01
#     24     Cr     3.463279E-04     1.045572E-03     5.199762E+01
#     25     Mn     1.817136E-04     5.796206E-04     5.493805E+01
#     26     Fe     2.341464E-02     7.592291E-02     5.584731E+01
#     27     Co     6.158679E-05     2.107320E-04     5.893319E+01
#     28     Ni     1.316702E-03     4.487945E-03     5.870525E+01
#     29     Cu     1.201123E-05     4.431668E-05     6.354723E+01
#     30     Zn     2.947729E-05     1.119080E-04     6.538687E+01
#     31     Ga     5.616782E-07     2.273583E-06     6.971723E+01
#     32     Ge     1.903214E-06     8.025819E-06     7.263045E+01
#     33     As     1.736151E-07     7.552272E-07     7.492160E+01
#     34     Se     1.903214E-06     8.728593E-06     7.899028E+01
#     35     Br     3.158548E-07     1.465389E-06     7.990652E+01
#     36     Kr     1.511428E-06     7.353928E-06     8.380092E+01
#     37     Rb     2.947729E-07     1.462765E-06     8.546807E+01
#     38     Sr     6.910151E-07     3.515251E-06     8.761646E+01
#     39     Y      1.287027E-07     6.643562E-07     8.890587E+01
#     40     Zr     2.947729E-07     1.561272E-06     9.122375E+01
#     41     Nb     1.947545E-08     1.050549E-07     9.290638E+01
#     42     Mo     6.158679E-08     3.428800E-07     9.588960E+01
#     43     Tc     0.000000E+00     0.000000E+00     9.690639E+01
#     44     Ru     5.122566E-08     3.005927E-07     1.010666E+02
#     45     Rh     9.758600E-09     5.830546E-08     1.029055E+02
#     46     Pd     3.626499E-08     2.240978E-07     1.064307E+02
#     47     Ag     6.448928E-09     4.038921E-08     1.078685E+02
#     48     Cd     4.360011E-08     2.845931E-07     1.124227E+02
#     49     In     3.384446E-08     2.256221E-07     1.148183E+02
#     50     Sn     7.404360E-08     5.104404E-07     1.187338E+02
#     51     Sb     7.404360E-09     5.234457E-08     1.217590E+02
#     52     Te     1.287027E-07     9.537093E-07     1.276278E+02
#     53     I      2.395452E-08     1.765011E-07     1.269045E+02
#     54     Xe     1.094933E-07     8.346586E-07     1.312920E+02
#     55     Cs     9.990507E-09     7.709272E-08     1.329054E+02
#     56     Ba     9.990507E-08     7.965774E-07     1.373275E+02
#     57     La     1.094933E-08     8.830597E-08     1.389055E+02
#     58     Ce     2.814411E-08     2.289570E-07     1.401146E+02
#     59     Pr     3.796536E-09     3.106028E-08     1.409077E+02
#     60     Nd     2.341464E-08     1.960919E-07     1.442411E+02
#     61     Pm     0.000000E+00     0.000000E+00     1.449128E+02
#     62     Sm     7.576830E-09     6.614742E-08     1.503635E+02
#     63     Eu     2.395452E-09     2.113547E-08     1.519642E+02
#     64     Gd     9.758600E-09     8.909990E-08     1.572558E+02
#     65     Tb     5.881492E-10     5.427051E-09     1.589254E+02
#     66     Dy     1.022322E-08     9.645489E-08     1.625001E+02
#     67     Ho     1.347372E-09     1.290242E-08     1.649304E+02
#     68     Er     6.302133E-09     6.120210E-08     1.672614E+02
#     69     Tm     7.404360E-10     7.262536E-09     1.689342E+02
#     70     Yb     8.904049E-09     8.945589E-08     1.730367E+02
#     71     Lu     8.503301E-10     8.638257E-09     1.749667E+02
#     72     Hf     5.616782E-09     5.820847E-08     1.784907E+02
#     73     Ta     5.488928E-10     5.766657E-09     1.809479E+02
#     74     W      9.540860E-09     1.018390E-07     1.838415E+02
#     75     Re     1.410872E-09     1.525392E-08     1.862134E+02
#     76     Os     2.086832E-08     2.304976E-07     1.902374E+02
#     77     Ir     1.658011E-08     1.850377E-07     1.922161E+02
#     78     Pt     4.671835E-08     5.291572E-07     1.950806E+02
#     79     Au     7.576830E-09     8.664890E-08     1.969666E+02
#     80     Hg     9.990507E-09     1.163576E-07     2.005969E+02
#     81     Tl     5.881492E-09     6.979384E-08     2.043838E+02
#     82     Pb     6.599143E-08     7.939617E-07     2.072187E+02
#     83     Bi     3.796536E-09     4.606554E-08     2.089804E+02
#     84     Po     0.000000E+00     0.000000E+00     2.089824E+02
#     85     At     0.000000E+00     0.000000E+00     2.099870E+02
#     86     Rn     0.000000E+00     0.000000E+00     2.220176E+02
#     87     Fr     0.000000E+00     0.000000E+00     2.230198E+02
#     88     Ra     0.000000E+00     0.000000E+00     2.260254E+02
#     89     Ac     0.000000E+00     0.000000E+00     2.270278E+02
#     90     Th     9.105159E-10     1.226676E-08     2.320381E+02
#     91     Pa     0.000000E+00     0.000000E+00     2.310359E+02
#     92     U      2.341464E-10     3.235939E-09     2.380289E+02
#     93     Np     0.000000E+00     0.000000E+00     2.370482E+02
#     94     Pu     0.000000E+00     0.000000E+00     2.440642E+02
#     95     Am     0.000000E+00     0.000000E+00     2.430614E+02
#     96     Cm     0.000000E+00     0.000000E+00     2.470704E+02
#     97     Bk     0.000000E+00     0.000000E+00     2.470703E+02
#     98     Cf     0.000000E+00     0.000000E+00     2.510796E+02
#     99     Es     0.000000E+00     0.000000E+00     2.540881E+02
#
#
#  Abundance ratio variations of metals with respect to 
#  scaled-solar values: [X_i/Fe] (in dex)
#  Fe-group elements: V, Cr, Mn, Fe, Co, Ni, Cu, Zn
#  Reference metallicity is preserved:  Zref = Z
#  No change in any metal abundance
#
#       1    H         -----      34   [Se/Fe]=   0.000      67   [Ho/Fe]=   0.000
#       2    He        -----      35   [Br/Fe]=   0.000      68   [Er/Fe]=   0.000
#       3   [Li/Fe]=   0.000      36   [Kr/Fe]=   0.000      69   [Tm/Fe]=   0.000
#       4   [Be/Fe]=   0.000      37   [Rb/Fe]=   0.000      70   [Yb/Fe]=   0.000
#       5   [B /Fe]=   0.000      38   [Sr/Fe]=   0.000      71   [Lu/Fe]=   0.000
#       6   [C /Fe]=   0.000      39   [Y /Fe]=   0.000      72   [Hf/Fe]=   0.000
#       7   [N /Fe]=   0.000      40   [Zr/Fe]=   0.000      73   [Ta/Fe]=   0.000
#       8   [O /Fe]=   0.000      41   [Nb/Fe]=   0.000      74   [W /Fe]=   0.000
#       9   [F /Fe]=   0.000      42   [Mo/Fe]=   0.000      75   [Re/Fe]=   0.000
#      10   [Ne/Fe]=   0.000      43   [Tc/Fe]=   0.000      76   [Os/Fe]=   0.000
#      11   [Na/Fe]=   0.000      44   [Ru/Fe]=   0.000      77   [Ir/Fe]=   0.000
#      12   [Mg/Fe]=   0.000      45   [Rh/Fe]=   0.000      78   [Pt/Fe]=   0.000
#      13   [Al/Fe]=   0.000      46   [Pd/Fe]=   0.000      79   [Au/Fe]=   0.000
#      14   [Si/Fe]=   0.000      47   [Ag/Fe]=   0.000      80   [Hg/Fe]=   0.000
#      15   [P /Fe]=   0.000      48   [Cd/Fe]=   0.000      81   [Tl/Fe]=   0.000
#      16   [S /Fe]=   0.000      49   [In/Fe]=   0.000      82   [Pb/Fe]=   0.000
#      17   [Cl/Fe]=   0.000      50   [Sn/Fe]=   0.000      83   [Bi/Fe]=   0.000
#      18   [Ar/Fe]=   0.000      51   [Sb/Fe]=   0.000      84   [Po/Fe]=   0.000
#      19   [K /Fe]=   0.000      52   [Te/Fe]=   0.000      85   [At/Fe]=   0.000
#      20   [Ca/Fe]=   0.000      53   [I /Fe]=   0.000      86   [Rn/Fe]=   0.000
#      21   [Sc/Fe]=   0.000      54   [Xe/Fe]=   0.000      87   [Fr/Fe]=   0.000
#      22   [Ti/Fe]=   0.000      55   [Cs/Fe]=   0.000      88   [Ra/Fe]=   0.000
#      23    V         -----      56   [Ba/Fe]=   0.000      89   [Ac/Fe]=   0.000
#      24    Cr        -----      57   [La/Fe]=   0.000      90   [Th/Fe]=   0.000
#      25    Mn        -----      58   [Ce/Fe]=   0.000      91   [Pa/Fe]=   0.000
#      26    Fe        -----      59   [Pr/Fe]=   0.000      92   [U /Fe]=   0.000
#      27    Co        -----      60   [Nd/Fe]=   0.000      93   [Np/Fe]=   0.000
#      28    Ni        -----      61   [Pm/Fe]=   0.000      94   [Pu/Fe]=   0.000
#      29    Cu        -----      62   [Sm/Fe]=   0.000      95   [Am/Fe]=   0.000
#      30    Zn        -----      63   [Eu/Fe]=   0.000      96   [Cm/Fe]=   0.000
#      31   [Ga/Fe]=   0.000      64   [Gd/Fe]=   0.000      97   [Bk/Fe]=   0.000
#      32   [Ge/Fe]=   0.000      65   [Tb/Fe]=   0.000      98   [Cf/Fe]=   0.000
#      33   [As/Fe]=   0.000      66   [Dy/Fe]=   0.000      99   [Es/Fe]=   0.000
#
#
#  Individual variations of metal abundances (number fraction): log10(variation factor) (in dex)
#  Reference metallicity is in general NOT preserved Zref != Z
#
#       1   H    -----      34   Se   0.000      67   Ho   0.000
#       2   He   -----      35   Br   0.000      68   Er   0.000
#       3   Li   0.000      36   Kr   0.000      69   Tm   0.000
#       4   Be   0.000      37   Rb   0.000      70   Yb   0.000
#       5   B    0.000      38   Sr   0.000      71   Lu   0.000
#       6   C    0.000      39   Y    0.000      72   Hf   0.000
#       7   N    0.000      40   Zr   0.000      73   Ta   0.000
#       8   O    0.000      41   Nb   0.000      74   W    0.000
#       9   F    0.000      42   Mo   0.000      75   Re   0.000
#      10   Ne   0.000      43   Tc   0.000      76   Os   0.000
#      11   Na   0.000      44   Ru   0.000      77   Ir   0.000
#      12   Mg   0.000      45   Rh   0.000      78   Pt   0.000
#      13   Al   0.000      46   Pd   0.000      79   Au   0.000
#      14   Si   0.000      47   Ag   0.000      80   Hg   0.000
#      15   P    0.000      48   Cd   0.000      81   Tl   0.000
#      16   S    0.000      49   In   0.000      82   Pb   0.000
#      17   Cl   0.000      50   Sn   0.000      83   Bi   0.000
#      18   Ar   0.000      51   Sb   0.000      84   Po   0.000
#      19   K    0.000      52   Te   0.000      85   At   0.000
#      20   Ca   0.000      53   I    0.000      86   Rn   0.000
#      21   Sc   0.000      54   Xe   0.000      87   Fr   0.000
#      22   Ti   0.000      55   Cs   0.000      88   Ra   0.000
#      23   V    0.000      56   Ba   0.000      89   Ac   0.000
#      24   Cr   0.000      57   La   0.000      90   Th   0.000
#      25   Mn   0.000      58   Ce   0.000      91   Pa   0.000
#      26   Fe   0.000      59   Pr   0.000      92   U    0.000
#      27   Co   0.000      60   Nd   0.000      93   Np   0.000
#      28   Ni   0.000      61   Pm   0.000      94   Pu   0.000
#      29   Cu   0.000      62   Sm   0.000      95   Am   0.000
#      30   Zn   0.000      63   Eu   0.000      96   Cm   0.000
#      31   Ga   0.000      64   Gd   0.000      97   Bk   0.000
#      32   Ge   0.000      65   Tb   0.000      98   Cf   0.000
#      33   As   0.000      66   Dy   0.000      99   Es   0.000
#
#
#              VARIATION GRID OF C/O - C - N ABUNDANCES (in number fraction)
#
#          FCO = log10(variation factor) of C/O ratio
#
#
#           FC = log10(variation factor) of carbon abundance
#
#
#           FN = log10(variation factor) of nitrogen abundance
#
#
#           FO = FC - FCO = log10(variation factor) of oxygen abundance 
#
#
#              TOTAL NUMBER OF TABLES:   mh x mco x mc x mn =     1
#
#
# TABLE      1     X=  0.700000     Y=  0.300000     Zref= 0.000000E+00     Z= 2.000618E-09     FCO=  0.000   FC=  0.000   FN=  0.000   FO=  0.000  C/O=   0.0000E+00
#
#     Zi   element     ni/nz             Xi/Z            ni/nH            Xi/XH             <Ai>
#
#      3     Li     1.000000E+00     1.000000E+00     4.150000E-10     2.858026E-09       6.941739
#      4     Be     3.746922E-20     4.864480E-20     1.554973E-29     1.390281E-28       9.012183
#      5     B      5.292669E-19     8.243687E-19     2.196457E-28     2.356067E-27      10.812224
#      6     C      4.939406E-13     8.546545E-13     2.049853E-22     2.442624E-21      12.011137
#      7     N      1.240723E-13     2.503481E-13     5.148999E-23     7.155012E-22      14.006763
#      8     O      1.008497E-12     2.324393E-12     4.185263E-22     6.643173E-21      15.999375
#      9     F      5.415951E-17     1.482257E-16     2.247620E-26     4.236329E-25      18.998405
#     10     Ne     1.793803E-13     5.212437E-13     7.444282E-23     1.489728E-21      20.171321
#     11     Na     3.189148E-15     1.056188E-14     1.323497E-24     3.018611E-23      22.989771
#     12     Mg     5.669891E-14     1.985562E-13     2.353005E-23     5.674786E-22      24.309551
#     13     Al     4.401236E-15     1.710697E-14     1.826513E-24     4.889217E-23      26.981541
#     14     Si     5.292669E-14     2.141363E-13     2.196457E-23     6.120071E-22      28.085611
#     15     P      4.204116E-16     1.875860E-15     1.744708E-25     5.361256E-24      30.973765
#     16     S      3.189148E-14     1.473093E-13     1.323497E-23     4.210138E-22      32.064451
#     17     Cl     4.717096E-16     2.409434E-15     1.957595E-25     6.886222E-24      35.457532
#     18     Ar     3.746922E-15     2.156244E-14     1.554973E-24     6.162599E-23      39.947662
#     19     K      1.965960E-16     1.107382E-15     8.158735E-26     3.164927E-24      39.101298
#     20     Ca     3.418021E-15     1.973316E-14     1.418479E-24     5.639788E-23      40.076544
#     21     Sc     2.205844E-18     1.428543E-17     9.154251E-28     4.082812E-26      44.955917
#     22     Ti     1.561977E-16     1.077335E-15     6.482206E-26     3.079051E-24      47.878925
#     23     V      1.491677E-17     1.094659E-16     6.190458E-27     3.128563E-25      50.941572
#     24     Cr     6.977096E-16     5.226247E-15     2.895495E-25     1.493675E-23      51.997623
#     25     Mn     3.660789E-16     2.897208E-15     1.519227E-25     8.280294E-24      54.938046
#     26     Fe     4.717096E-14     3.794973E-13     1.957595E-23     1.084613E-21      55.847311
#     27     Co     1.240723E-16     1.053335E-15     5.148999E-26     3.010457E-24      58.933189
#     28     Ni     2.652618E-15     2.243280E-14     1.100836E-24     6.411351E-23      58.705254
#     29     Cu     2.419773E-17     2.215150E-16     1.004206E-26     6.330955E-25      63.547234
#     30     Zn     5.938472E-17     5.593672E-16     2.464466E-26     1.598686E-24      65.386875
#     31     Ga     1.131552E-18     1.136440E-17     4.695943E-28     3.247975E-26      69.717234
#     32     Ge     3.834199E-18     4.011670E-17     1.591193E-27     1.146546E-25      72.630452
#     33     As     3.497637E-19     3.774970E-18     1.451519E-28     1.078896E-26      74.921600
#     34     Se     3.834199E-18     4.362948E-17     1.591193E-27     1.246942E-25      78.990277
#     35     Br     6.363187E-19     7.324680E-18     2.640723E-28     2.093412E-26      79.906523
#     36     Kr     3.044912E-18     3.675829E-17     1.263638E-27     1.050561E-25      83.800924
#     37     Rb     5.938472E-19     7.311565E-18     2.464466E-28     2.089664E-26      85.468072
#     38     Sr     1.392114E-18     1.757082E-17     5.777272E-28     5.021787E-26      87.616461
#     39     Y      2.592834E-19     3.320755E-18     1.076026E-28     9.490803E-27      88.905867
#     40     Zr     5.938472E-19     7.803948E-18     2.464466E-28     2.230388E-26      91.223746
#     41     Nb     3.923509E-20     5.251121E-19     1.628256E-29     1.500784E-27      92.906380
#     42     Mo     1.240723E-19     1.713870E-18     5.148999E-29     4.898285E-27      95.889605
#     43     Tc     0.000000E+00     0.000000E+00     0.000000E+00     0.000000E+00      96.906390
#     44     Ru     1.031988E-19     1.502499E-18     4.282751E-29     4.294181E-27     101.066641
#     45     Rh     1.965960E-20     2.914373E-19     8.158735E-30     8.329351E-28     102.905511
#     46     Pd     7.305917E-20     1.120143E-18     3.031955E-29     3.201397E-27     106.430727
#     47     Ag     1.299196E-20     2.018837E-19     5.391664E-30     5.769887E-28     107.868530
#     48     Cd     8.783644E-20     1.422526E-18     3.645212E-29     4.065616E-27     112.422659
#     49     In     6.818278E-20     1.127762E-18     2.829585E-29     3.223173E-27     114.818279
#     50     Sn     1.491677E-19     2.551414E-18     6.190458E-29     7.292006E-27     118.733825
#     51     Sb     1.491677E-20     2.616420E-19     6.190458E-30     7.477795E-28     121.758986
#     52     Te     2.592834E-19     4.767074E-18     1.076026E-28     1.362442E-26     127.627845
#     53     I      4.825860E-20     8.822332E-19     2.002732E-29     2.521445E-27     126.904474
#     54     Xe     2.205844E-19     4.172004E-18     9.154251E-29     1.192369E-26     131.292004
#     55     Cs     2.012680E-20     3.853445E-19     8.352621E-30     1.101325E-27     132.905440
#     56     Ba     2.012680E-19     3.981657E-18     8.352621E-29     1.137968E-26     137.327464
#     57     La     2.205844E-20     4.413935E-19     9.154251E-30     1.261514E-27     138.905511
#     58     Ce     5.669891E-20     1.144431E-18     2.353005E-29     3.270814E-27     140.114588
#     59     Pr     7.648472E-21     1.552534E-19     3.174116E-30     4.437182E-28     140.907700
#     60     Nd     4.717096E-20     9.801565E-19     1.957595E-29     2.801312E-27     144.241079
#     61     Pm     0.000000E+00     0.000000E+00     0.000000E+00     0.000000E+00     144.912790
#     62     Sm     1.526422E-20     3.306350E-19     6.334653E-30     9.449632E-28     150.363469
#     63     Eu     4.825860E-21     1.056447E-19     2.002732E-30     3.019353E-28     151.964200
#     64     Gd     1.965960E-20     4.453619E-19     8.158735E-30     1.272856E-27     157.255784
#     65     Tb     1.184881E-21     2.712687E-20     4.917256E-31     7.752929E-29     158.925390
#     66     Dy     2.059561E-20     4.821255E-19     8.547179E-30     1.377927E-27     162.500111
#     67     Ho     2.714405E-21     6.449218E-20     1.126478E-30     1.843203E-28     164.930360
#     68     Er     1.269623E-20     3.059160E-19     5.268935E-30     8.743157E-28     167.261394
#     69     Tm     1.491677E-21     3.630146E-20     6.190458E-31     1.037505E-28     168.934240
#     70     Yb     1.793803E-20     4.471413E-19     7.444282E-30     1.277941E-27     173.036747
#     71     Lu     1.713068E-21     4.317795E-20     7.109234E-31     1.234037E-28     174.966749
#     72     Hf     1.131552E-20     2.909525E-19     4.695943E-30     8.315496E-28     178.490703
#     73     Ta     1.105795E-21     2.882438E-20     4.589050E-31     8.238082E-29     180.947907
#     74     W      1.922094E-20     5.090378E-19     7.976692E-30     1.454843E-27     183.841519
#     75     Re     2.842331E-21     7.624604E-20     1.179568E-30     2.179131E-28     186.213359
#     76     Os     4.204116E-20     1.152132E-18     1.744708E-29     3.292823E-27     190.237368
#     77     Ir     3.340217E-20     9.249030E-19     1.386190E-29     2.643396E-27     192.216095
#     78     Pt     9.411844E-20     2.644969E-18     3.905915E-29     7.559389E-27     195.080617
#     79     Au     1.526422E-20     4.331107E-19     6.334653E-30     1.237841E-27     196.966550
#     80     Hg     2.012680E-20     5.816084E-19     8.352621E-30     1.662252E-27     200.596900
#     81     Tl     1.184881E-20     3.488614E-19     4.917256E-30     9.970549E-28     204.383823
#     82     Pb     1.329458E-19     3.968583E-18     5.517252E-29     1.134231E-26     207.218721
#     83     Bi     7.648472E-21     2.302566E-19     3.174116E-30     6.580791E-28     208.980400
#     84     Po     0.000000E+00     0.000000E+00     0.000000E+00     0.000000E+00     208.982440
#     85     At     0.000000E+00     0.000000E+00     0.000000E+00     0.000000E+00     209.987040
#     86     Rn     0.000000E+00     0.000000E+00     0.000000E+00     0.000000E+00     222.017610
#     87     Fr     0.000000E+00     0.000000E+00     0.000000E+00     0.000000E+00     223.019760
#     88     Ra     0.000000E+00     0.000000E+00     0.000000E+00     0.000000E+00     226.025440
#     89     Ac     0.000000E+00     0.000000E+00     0.000000E+00     0.000000E+00     227.027770
#     90     Th     1.834318E-21     6.131486E-20     7.612421E-31     1.752394E-28     232.038080
#     91     Pa     0.000000E+00     0.000000E+00     0.000000E+00     0.000000E+00     231.035900
#     92     U      4.717096E-22     1.617470E-20     1.957595E-31     4.622770E-29     238.028942
#     93     Np     0.000000E+00     0.000000E+00     0.000000E+00     0.000000E+00     237.048190
#     94     Pu     0.000000E+00     0.000000E+00     0.000000E+00     0.000000E+00     244.064240
#     95     Am     0.000000E+00     0.000000E+00     0.000000E+00     0.000000E+00     243.061390
#     96     Cm     0.000000E+00     0.000000E+00     0.000000E+00     0.000000E+00     247.070380
#     97     Bk     0.000000E+00     0.000000E+00     0.000000E+00     0.000000E+00     247.070320
#     98     Cf     0.000000E+00     0.000000E+00     0.000000E+00     0.000000E+00     251.079610
#     99     Es     0.000000E+00     0.000000E+00     0.000000E+00     0.000000E+00     254.088050
#
#
4.500  -0.4882  -0.4878  -0.4873  -0.4867  -0.4858  -0.4847  -0.4834  -0.4817  -0.4796  -0.4770  -0.4739  -0.4702  -0.4657  -0.4603  -0.4538  -0.4460  -0.4367  -0.4257  -0.4129  -0.3982  -0.3819  -0.3639  -0.3447  -0.3243  -0.3029  -0.2807  -0.2575  -0.2331  -0.2074  -0.1801  -0.1506  -0.1187  -0.0838  -0.0456  -0.0035   0.0428   0.0936   0.1492   0.2095   0.2747   0.3449   0.4199   0.4994   0.5832   0.6709   0.7619   0.8562   0.9530   1.0520   1.1530   1.2556   1.3597   1.4650   1.5714   1.6787   1.7868   1.8957   2.0052   2.1153   2.2261   2.3373   2.4489   2.5611   2.6737   2.7867   2.8999   3.0137   3.1278   3.2418   3.3558   3.4694   3.5824   3.6944   3.8050   3.9137   4.0200   4.1239   4.2250   4.3222   4.4159   4.5054   4.5905   4.6711   4.7467   4.8170   4.8825   4.9423   4.9971   5.0474   5.0928   5.1339
4.450  -0.4799  -0.4798  -0.4796  -0.4794  -0.4790  -0.4784  -0.4776  -0.4765  -0.4751  -0.4731  -0.4706  -0.4674  -0.4634  -0.4585  -0.4527  -0.4459  -0.4379  -0.4288  -0.4186  -0.4072  -0.3945  -0.3807  -0.3657  -0.3496  -0.3324  -0.3139  -0.2942  -0.2730  -0.2501  -0.2251  -0.1977  -0.1674  -0.1338  -0.0967  -0.0555  -0.0100   0.0401   0.0950   0.1548   0.2195   0.2892   0.3638   0.4429   0.5264   0.6137   0.7045   0.7984   0.8948   0.9936   1.0943   1.1967   1.3004   1.4054   1.5115   1.6184   1.7262   1.8346   1.9437   2.0533   2.1633   2.2737   2.3846   2.4957   2.6072   2.7188   2.8307   2.9425   3.0545   3.1661   3.2775   3.3882   3.4980   3.6066   3.7135   3.8186   3.9213   4.0212   4.1180   4.2113   4.3010   4.3862   4.4670   4.5434   4.6148   4.6815   4.7434   4.8005   4.8531   4.9013   4.9456   4.9863
4.400  -0.4874  -0.4887  -0.4900  -0.4910  -0.4916  -0.4918  -0.4915  -0.4905  -0.4888  -0.4864  -0.4833  -0.4794  -0.4748  -0.4693  -0.4631  -0.4560  -0.4481  -0.4394  -0.4299  -0.4196  -0.4085  -0.3965  -0.3837  -0.3698  -0.3549  -0.3387  -0.3210  -0.3016  -0.2802  -0.2564  -0.2298  -0.2002  -0.1671  -0.1301  -0.0890  -0.0435   0.0065   0.0613   0.1211   0.1857   0.2554   0.3298   0.4088   0.4920   0.5792   0.6697   0.7632   0.8593   0.9577   1.0579   1.1598   1.2630   1.3674   1.4727   1.5789   1.6857   1.7931   1.9008   2.0090   2.1173   2.2259   2.3346   2.4433   2.5522   2.6609   2.7697   2.8784   2.9869   3.0951   3.2028   3.3097   3.4156   3.5201   3.6226   3.7229   3.8203   3.9144   4.0049   4.0913   4.1733   4.2509   4.3237   4.3918   4.4553   4.5143   4.5687   4.6193   4.6660   4.7091   4.7489   4.7859
4.350  -0.5052  -0.5049  -0.5044  -0.5035  -0.5023  -0.5007  -0.4987  -0.4963  -0.4934  -0.4899  -0.4861  -0.4817  -0.4770  -0.4717  -0.4661  -0.4600  -0.4534  -0.4463  -0.4387  -0.4305  -0.4215  -0.4116  -0.4007  -0.3887  -0.3752  -0.3601  -0.3432  -0.3242  -0.3027  -0.2785  -0.2513  -0.2207  -0.1865  -0.1484  -0.1061  -0.0595  -0.0082   0.0477   0.1084   0.1740   0.2445   0.3196   0.3991   0.4827   0.5699   0.6604   0.7538   0.8496   0.9475   1.0471   1.1480   1.2502   1.3533   1.4572   1.5615   1.6662   1.7712   1.8764   1.9815   2.0868   2.1921   2.2975   2.4030   2.5087   2.6145   2.7204   2.8263   2.9320   3.0372   3.1416   3.2446   3.3458   3.4447   3.5407   3.6333   3.7221   3.8068   3.8870   3.9626   4.0336   4.0998   4.1615   4.2189   4.2720   4.3212   4.3668   4.4091   4.4483   4.4849   4.5191   4.5511
4.300  -0.5071  -0.5062  -0.5051  -0.5038  -0.5022  -0.5004  -0.4982  -0.4958  -0.4930  -0.4900  -0.4867  -0.4832  -0.4794  -0.4755  -0.4712  -0.4667  -0.4618  -0.4563  -0.4503  -0.4434  -0.4356  -0.4266  -0.4164  -0.4046  -0.3911  -0.3756  -0.3579  -0.3376  -0.3146  -0.2886  -0.2593  -0.2265  -0.1899  -0.1494  -0.1047  -0.0557  -0.0021   0.0560   0.1188   0.1862   0.2583   0.3347   0.4151   0.4993   0.5867   0.6771   0.7699   0.8648   0.9613   1.0592   1.1581   1.2578   1.3581   1.4588   1.5599   1.6612   1.7629   1.8649   1.9673   2.0702   2.1734   2.2772   2.3813   2.4857   2.5901   2.6941   2.7975   2.8996   3.0001   3.0983   3.1938   3.2861   3.3746   3.4591   3.5392   3.6147   3.6856   3.7519   3.8136   3.8709   3.9240   3.9733   4.0189   4.0612   4.1005   4.1371   4.1713   4.2034   4.2337   4.2625   4.2898
4.250  -0.5066  -0.5056  -0.5045  -0.5032  -0.5018  -0.5002  -0.4984  -0.4965  -0.4944  -0.4922  -0.4900  -0.4876  -0.4850  -0.4822  -0.4791  -0.4755  -0.4715  -0.4667  -0.4610  -0.4544  -0.4465  -0.4372  -0.4263  -0.4135  -0.3988  -0.3817  -0.3619  -0.3394  -0.3137  -0.2847  -0.2523  -0.2161  -0.1762  -0.1322  -0.0841  -0.0318   0.0248   0.0858   0.1512   0.2207   0.2943   0.3716   0.4524   0.5362   0.6227   0.7114   0.8021   0.8944   0.9882   1.0832   1.1792   1.2763   1.3744   1.4733   1.5732   1.6740   1.7755   1.8775   1.9802   2.0832   2.1862   2.2890   2.3911   2.4924   2.5923   2.6903   2.7860   2.8788   2.9682   3.0539   3.1355   3.2126   3.2853   3.3534   3.4169   3.4759   3.5307   3.5815   3.6285   3.6720   3.7123   3.7498   3.7847   3.8173   3.8479   3.8768   3.9042   3.9305   3.9556   3.9800   4.0038
4.200  -0.5064  -0.5056  -0.5047  -0.5037  -0.5027  -0.5016  -0.5005  -0.4993  -0.4980  -0.4966  -0.4951  -0.4933  -0.4913  -0.4890  -0.4861  -0.4827  -0.4785  -0.4735  -0.4674  -0.4601  -0.4513  -0.4408  -0.4285  -0.4140  -0.3970  -0.3776  -0.3552  -0.3296  -0.3006  -0.2682  -0.2321  -0.1922  -0.1486  -0.1011  -0.0497   0.0056   0.0647   0.1277   0.1943   0.2646   0.3384   0.4153   0.4954   0.5783   0.6639   0.7520   0.8425   0.9352   1.0297   1.1260   1.2237   1.3226   1.4225   1.5231   1.6242   1.7254   1.8266   1.9275   2.0278   2.1268   2.2246   2.3206   2.4143   2.5053   2.5927   2.6768   2.7569   2.8329   2.9043   2.9713   3.0338   3.0919   3.1458   3.1957   3.2418   3.2845   3.3239   3.3606   3.3946   3.4264   3.4561   3.4841   3.5106   3.5358   3.5599   3.5831   3.6057   3.6278   3.6495   3.6711   3.6927
4.150  -0.5071  -0.5066  -0.5061  -0.5056  -0.5050  -0.5044  -0.5037  -0.5028  -0.5019  -0.5007  -0.4994  -0.4977  -0.4956  -0.4931  -0.4900  -0.4863  -0.4816  -0.4760  -0.4691  -0.4608  -0.4509  -0.4391  -0.4252  -0.4089  -0.3900  -0.3683  -0.3436  -0.3158  -0.2845  -0.2497  -0.2113  -0.1691  -0.1232  -0.0734  -0.0196   0.0383   0.1002   0.1663   0.2365   0.3106   0.3884   0.4699   0.5546   0.6423   0.7326   0.8251   0.9195   1.0153   1.1124   1.2103   1.3087   1.4073   1.5058   1.6038   1.7010   1.7970   1.8914   1.9836   2.0735   2.1605   2.2442   2.3240   2.4000   2.4718   2.5393   2.6024   2.6606   2.7150   2.7654   2.8119   2.8549   2.8946   2.9314   2.9654   2.9970   3.0264   3.0540   3.0799   3.1045   3.1278   3.1501   3.1717   3.1927   3.2131   3.2332   3.2533   3.2733   3.2934   3.3137   3.3343   3.3554
4.100  -0.5086  -0.5084  -0.5081  -0.5078  -0.5075  -0.5070  -0.5065  -0.5058  -0.5050  -0.5040  -0.5027  -0.5012  -0.4992  -0.4968  -0.4939  -0.4902  -0.4859  -0.4804  -0.4738  -0.4657  -0.4559  -0.4441  -0.4300  -0.4134  -0.3937  -0.3708  -0.3444  -0.3141  -0.2798  -0.2414  -0.1982  -0.1505  -0.0981  -0.0410   0.0206   0.0865   0.1567   0.2308   0.3086   0.3898   0.4741   0.5608   0.6500   0.7410   0.8335   0.9271   1.0212   1.1156   1.2098   1.3033   1.3959   1.4872   1.5763   1.6633   1.7474   1.8281   1.9054   1.9788   2.0480   2.1127   2.1734   2.2298   2.2821   2.3303   2.3746   2.4157   2.4536   2.4886   2.5210   2.5510   2.5790   2.6042   2.6287   2.6518   2.6737   2.6947   2.7148   2.7343   2.7533   2.7721   2.7906   2.8090   2.8275   2.8461   2.8650   2.8843   2.9041   2.9244   2.9453   2.9670   2.9894
4.050  -0.5119  -0.5122  -0.5126  -0.5130  -0.5136  -0.5142  -0.5148  -0.5155  -0.5161  -0.5166  -0.5169  -0.5169  -0.5164  -0.5153  -0.5134  -0.5105  -0.5062  -0.5005  -0.4932  -0.4835  -0.4715  -0.4567  -0.4389  -0.4179  -0.3932  -0.3648  -0.3323  -0.2957  -0.2547  -0.2092  -0.1594  -0.1048  -0.0456   0.0181   0.0860   0.1579   0.2333   0.3121   0.3937   0.4774   0.5632   0.6502   0.7381   0.8260   0.9138   1.0008   1.0864   1.1701   1.2513   1.3297   1.4048   1.4760   1.5436   1.6072   1.6665   1.7219   1.7733   1.8208   1.8647   1.9049   1.9422   1.9766   2.0083   2.0377   2.0645   2.0900   2.1138   2.1362   2.1574   2.1776   2.1971   2.2152   2.2333   2.2511   2.2686   2.2861   2.3035   2.3210   2.3386   2.3553   2.3735   2.3922   2.4115   2.4313   2.4518   2.4730   2.4950   2.5179   2.5416   2.5663   2.5918
4.000  -0.5325  -0.5347  -0.5367  -0.5385  -0.5400  -0.5412  -0.5420  -0.5423  -0.5421  -0.5413  -0.5400  -0.5379  -0.5350  -0.5312  -0.5264  -0.5203  -0.5129  -0.5037  -0.4927  -0.4795  -0.4643  -0.4458  -0.4242  -0.3993  -0.3708  -0.3385  -0.3022  -0.2619  -0.2172  -0.1684  -0.1154  -0.0581   0.0029   0.0680   0.1365   0.2080   0.2818   0.3572   0.4337   0.5105   0.5868   0.6619   0.7354   0.8064   0.8746   0.9393   1.0009   1.0587   1.1128   1.1631   1.2099   1.2532   1.2930   1.3299   1.3640   1.3953   1.4245   1.4518   1.4772   1.5013   1.5235   1.5449   1.5653   1.5849   1.6038   1.6222   1.6399   1.6576   1.6751   1.6927   1.7102   1.7278   1.7451   1.7631   1.7815   1.8003   1.8195   1.8393   1.8597   1.8808   1.9015   1.9238   1.9469   1.9708   1.9956   2.0213   2.0478   2.0753   2.1019   2.1311   2.1614
3.950  -0.5524  -0.5524  -0.5522  -0.5518  -0.5513  -0.5505  -0.5495  -0.5481  -0.5464  -0.5443  -0.5415  -0.5381  -0.5339  -0.5288  -0.5225  -0.5150  -0.5059  -0.4952  -0.4824  -0.4674  -0.4500  -0.4304  -0.4073  -0.3811  -0.3519  -0.3193  -0.2835  -0.2444  -0.2022  -0.1570  -0.1093  -0.0593  -0.0073   0.0462   0.1003   0.1547   0.2088   0.2619   0.3133   0.3628   0.4099   0.4544   0.4963   0.5356   0.5722   0.6062   0.6381   0.6675   0.6952   0.7212   0.7455   0.7681   0.7901   0.8109   0.8310   0.8503   0.8692   0.8877   0.9061   0.9242   0.9422   0.9603   0.9786   0.9972   1.0155   1.0346   1.0541   1.0740   1.0945   1.1155   1.1365   1.1584   1.1810   1.2042   1.2279   1.2523   1.2767   1.3024   1.3287   1.3559   1.3836   1.4122   1.4414   1.4706   1.5015   1.5331   1.5654   1.5987   1.6327   1.6677   1.7023
3.900  -0.5538  -0.5534  -0.5529  -0.5522  -0.5514  -0.5504  -0.5492  -0.5476  -0.5457  -0.5432  -0.5403  -0.5366  -0.5321  -0.5267  -0.5203  -0.5127  -0.5039  -0.4937  -0.4821  -0.4690  -0.4544  -0.4384  -0.4209  -0.4026  -0.3828  -0.3620  -0.3408  -0.3190  -0.2971  -0.2754  -0.2540  -0.2331  -0.2127  -0.1931  -0.1743  -0.1561  -0.1386  -0.1217  -0.1056  -0.0899  -0.0746  -0.0598  -0.0451  -0.0306  -0.0163  -0.0020   0.0124   0.0270   0.0418   0.0569   0.0724   0.0884   0.1049   0.1219   0.1395   0.1579   0.1769   0.1965   0.2170   0.2382   0.2602   0.2824   0.3059   0.3301   0.3549   0.3805   0.4066   0.4334   0.4608   0.4890   0.5174   0.5466   0.5763   0.6066   0.6375   0.6690   0.7004   0.7330   0.7662   0.8000   0.8347   0.8693   0.9050   0.9414   0.9785   1.0163   1.0546   1.0933   1.1329   1.1731   1.2139
3.850  -0.5552  -0.5551  -0.5550  -0.5550  -0.5549  -0.5548  -0.5547  -0.5547  -0.5546  -0.5545  -0.5545  -0.5546  -0.5548  -0.5552  -0.5560  -0.5572  -0.5591  -0.5618  -0.5653  -0.5699  -0.5755  -0.5823  -0.5903  -0.5993  -0.6093  -0.6201  -0.6317  -0.6442  -0.6567  -0.6694  -0.6821  -0.6947  -0.7072  -0.7189  -0.7300  -0.7401  -0.7492  -0.7571  -0.7636  -0.7686  -0.7719  -0.7734  -0.7730  -0.7707  -0.7666  -0.7604  -0.7521  -0.7417  -0.7294  -0.7153  -0.6992  -0.6812  -0.6618  -0.6405  -0.6177  -0.5935  -0.5680  -0.5412  -0.5133  -0.4844  -0.4545  -0.4238  -0.3925  -0.3602  -0.3273  -0.2938  -0.2600  -0.2255  -0.1905  -0.1551  -0.1193  -0.0830  -0.0462  -0.0089   0.0281   0.0662   0.1048   0.1439   0.1834   0.2235   0.2640   0.3049   0.3464   0.3882   0.4305   0.4733   0.5166   0.5602   0.6037   0.6481   0.6929
3.800  -0.5774  -0.5826  -0.5888  -0.5962  -0.6050  -0.6153  -0.6273  -0.6410  -0.6565  -0.6739  -0.6932  -0.7142  -0.7370  -0.7614  -0.7874  -0.8147  -0.8433  -0.8731  -0.9038  -0.9354  -0.9678  -1.0007  -1.0341  -1.0677  -1.1016  -1.1355  -1.1692  -1.2028  -1.2360  -1.2686  -1.3004  -1.3314  -1.3612  -1.3897  -1.4166  -1.4418  -1.4650  -1.4859  -1.5042  -1.5200  -1.5327  -1.5422  -1.5484  -1.5511  -1.5504  -1.5464  -1.5387  -1.5276  -1.5133  -1.4959  -1.4757  -1.4529  -1.4277  -1.4003  -1.3710  -1.3399  -1.3075  -1.2738  -1.2389  -1.2030  -1.1663  -1.1288  -1.0907  -1.0523  -1.0131  -0.9735  -0.9336  -0.8931  -0.8522  -0.8111  -0.7696  -0.7277  -0.6856  -0.6431  -0.6003  -0.5571  -0.5136  -0.4697  -0.4256  -0.3810  -0.3363  -0.2912  -0.2458  -0.2001  -0.1541  -0.1078  -0.0613  -0.0146   0.0319   0.0790   0.1262
3.750  -0.7751  -0.8041  -0.8349  -0.8675  -0.9016  -0.9371  -0.9738  -1.0117  -1.0507  -1.0905  -1.1311  -1.1723  -1.2142  -1.2565  -1.2992  -1.3423  -1.3856  -1.4291  -1.4727  -1.5163  -1.5600  -1.6035  -1.6470  -1.6902  -1.7332  -1.7758  -1.8180  -1.8597  -1.9008  -1.9411  -1.9805  -2.0188  -2.0558  -2.0913  -2.1251  -2.1569  -2.1863  -2.2131  -2.2369  -2.2574  -2.2743  -2.2873  -2.2964  -2.3012  -2.3017  -2.2980  -2.2901  -2.2781  -2.2623  -2.2429  -2.2203  -2.1947  -2.1664  -2.1358  -2.1032  -2.0687  -2.0325  -1.9950  -1.9563  -1.9166  -1.8762  -1.8348  -1.7929  -1.7504  -1.7074  -1.6640  -1.6203  -1.5762  -1.5318  -1.4871  -1.4421  -1.3968  -1.3513  -1.3056  -1.2596  -1.2134  -1.1670  -1.1204  -1.0738  -1.0268  -0.9796  -0.9322  -0.8847  -0.8370  -0.7893  -0.7414  -0.6934  -0.6454  -0.5974  -0.5494  -0.5015
3.700  -1.3215  -1.3664  -1.4117  -1.4573  -1.5032  -1.5493  -1.5957  -1.6422  -1.6888  -1.7354  -1.7822  -1.8289  -1.8757  -1.9224  -1.9690  -2.0156  -2.0620  -2.1083  -2.1544  -2.2003  -2.2459  -2.2913  -2.3364  -2.3810  -2.4253  -2.4691  -2.5123  -2.5549  -2.5968  -2.6378  -2.6778  -2.7167  -2.7543  -2.7904  -2.8247  -2.8571  -2.8872  -2.9147  -2.9393  -2.9607  -2.9786  -2.9928  -3.0031  -3.0092  -3.0112  -3.0090  -3.0027  -2.9923  -2.9782  -2.9604  -2.9392  -2.9149  -2.8879  -2.8583  -2.8263  -2.7924  -2.7567  -2.7194  -2.6809  -2.6411  -2.6004  -2.5588  -2.5165  -2.4736  -2.4300  -2.3860  -2.3415  -2.2967  -2.2515  -2.2061  -2.1603  -2.1144  -2.0682  -2.0216  -1.9749  -1.9280  -1.8810  -1.8337  -1.7864  -1.7389  -1.6912  -1.6435  -1.5957  -1.5479  -1.5000  -1.4521  -1.4043  -1.3565  -1.3088  -1.2611  -1.2136
3.690  -1.4602  -1.5063  -1.5526  -1.5991  -1.6458  -1.6926  -1.7395  -1.7865  -1.8335  -1.8805  -1.9274  -1.9744  -2.0212  -2.0680  -2.1146  -2.1611  -2.2074  -2.2536  -2.2995  -2.3452  -2.3906  -2.4357  -2.4804  -2.5247  -2.5686  -2.6120  -2.6548  -2.6969  -2.7383  -2.7789  -2.8184  -2.8569  -2.8940  -2.9297  -2.9636  -2.9956  -3.0254  -3.0527  -3.0772  -3.0986  -3.1166  -3.1310  -3.1416  -3.1483  -3.1508  -3.1493  -3.1437  -3.1342  -3.1209  -3.1040  -3.0837  -3.0602  -3.0339  -3.0050  -2.9737  -2.9404  -2.9052  -2.8684  -2.8303  -2.7909  -2.7505  -2.7092  -2.6671  -2.6243  -2.5810  -2.5372  -2.4929  -2.4482  -2.4032  -2.3578  -2.3122  -2.2663  -2.2201  -2.1738  -2.1272  -2.0805  -2.0336  -1.9865  -1.9392  -1.8918  -1.8443  -1.7968  -1.7491  -1.7014  -1.6537  -1.6060  -1.5583  -1.5107  -1.4631  -1.4156  -1.3682
3.680  -1.6055  -1.6523  -1.6993  -1.7464  -1.7936  -1.8408  -1.8880  -1.9352  -1.9823  -2.0294  -2.0765  -2.1234  -2.1702  -2.2168  -2.2633  -2.3095  -2.3556  -2.4014  -2.4470  -2.4923  -2.5373  -2.5819  -2.6261  -2.6699  -2.7133  -2.7561  -2.7983  -2.8399  -2.8807  -2.9206  -2.9596  -2.9974  -3.0340  -3.0691  -3.1026  -3.1342  -3.1636  -3.1906  -3.2150  -3.2364  -3.2545  -3.2692  -3.2802  -3.2874  -3.2907  -3.2900  -3.2854  -3.2769  -3.2646  -3.2488  -3.2295  -3.2071  -3.1818  -3.1537  -3.1233  -3.0907  -3.0561  -3.0200  -2.9823  -2.9434  -2.9034  -2.8625  -2.8207  -2.7783  -2.7352  -2.6916  -2.6476  -2.6031  -2.5583  -2.5131  -2.4677  -2.4220  -2.3760  -2.3298  -2.2834  -2.2368  -2.1900  -2.1431  -2.0961  -2.0489  -2.0015  -1.9541  -1.9067  -1.8592  -1.8117  -1.7642  -1.7167  -1.6692  -1.6219  -1.5745  -1.5272
3.670  -1.7564  -1.8038  -1.8511  -1.8985  -1.9459  -1.9932  -2.0405  -2.0877  -2.1349  -2.1819  -2.2288  -2.2756  -2.3221  -2.3685  -2.4146  -2.4606  -2.5062  -2.5516  -2.5967  -2.6415  -2.6859  -2.7299  -2.7735  -2.8167  -2.8593  -2.9014  -2.9429  -2.9838  -3.0238  -3.0631  -3.1013  -3.1385  -3.1744  -3.2089  -3.2418  -3.2729  -3.3020  -3.3287  -3.3530  -3.3743  -3.3927  -3.4077  -3.4192  -3.4271  -3.4313  -3.4316  -3.4281  -3.4208  -3.4098  -3.3953  -3.3773  -3.3561  -3.3319  -3.3050  -3.2755  -3.2438  -3.2100  -3.1746  -3.1375  -3.0992  -3.0597  -3.0192  -2.9778  -2.9358  -2.8930  -2.8498  -2.8060  -2.7618  -2.7172  -2.6723  -2.6271  -2.5816  -2.5358  -2.4899  -2.4437  -2.3973  -2.3507  -2.3040  -2.2571  -2.2101  -2.1631  -2.1159  -2.0687  -2.0214  -1.9741  -1.9269  -1.8796  -1.8324  -1.7852  -1.7379  -1.6905
3.660  -1.9124  -1.9599  -2.0074  -2.0548  -2.1022  -2.1495  -2.1967  -2.2438  -2.2908  -2.3376  -2.3842  -2.4306  -2.4768  -2.5227  -2.5684  -2.6139  -2.6590  -2.7038  -2.7483  -2.7924  -2.8361  -2.8795  -2.9223  -2.9647  -3.0066  -3.0479  -3.0886  -3.1286  -3.1678  -3.2062  -3.2437  -3.2801  -3.3153  -3.3491  -3.3814  -3.4120  -3.4407  -3.4672  -3.4913  -3.5127  -3.5313  -3.5467  -3.5589  -3.5677  -3.5728  -3.5743  -3.5721  -3.5663  -3.5568  -3.5437  -3.5272  -3.5075  -3.4847  -3.4590  -3.4307  -3.4000  -3.3672  -3.3326  -3.2963  -3.2586  -3.2197  -3.1797  -3.1388  -3.0972  -3.0548  -3.0119  -2.9685  -2.9246  -2.8804  -2.8357  -2.7908  -2.7455  -2.7000  -2.6543  -2.6084  -2.5622  -2.5159  -2.4694  -2.4228  -2.3761  -2.3292  -2.2823  -2.2353  -2.1883  -2.1413  -2.0943  -2.0473  -2.0002  -1.9531  -1.9057  -1.8580
3.650  -2.0728  -2.1203  -2.1677  -2.2150  -2.2622  -2.3093  -2.3563  -2.4030  -2.4496  -2.4960  -2.5422  -2.5881  -2.6338  -2.6792  -2.7243  -2.7691  -2.8136  -2.8577  -2.9015  -2.9449  -2.9878  -3.0303  -3.0724  -3.1139  -3.1549  -3.1953  -3.2351  -3.2742  -3.3125  -3.3500  -3.3866  -3.4221  -3.4566  -3.4897  -3.5214  -3.5514  -3.5797  -3.6059  -3.6299  -3.6515  -3.6704  -3.6864  -3.6993  -3.7090  -3.7153  -3.7182  -3.7175  -3.7132  -3.7054  -3.6941  -3.6793  -3.6612  -3.6400  -3.6158  -3.5888  -3.5594  -3.5278  -3.4941  -3.4588  -3.4219  -3.3836  -3.3443  -3.3040  -3.2628  -3.2209  -3.1784  -3.1354  -3.0919  -3.0479  -3.0036  -2.9590  -2.9141  -2.8689  -2.8234  -2.7777  -2.7318  -2.6858  -2.6396  -2.5932  -2.5468  -2.5002  -2.4536  -2.4069  -2.3602  -2.3134  -2.2666  -2.2198  -2.1728  -2.1256  -2.0779  -2.0294
3.640  -2.2370  -2.2843  -2.3315  -2.3786  -2.4255  -2.4722  -2.5187  -2.5650  -2.6111  -2.6570  -2.7025  -2.7478  -2.7929  -2.8376  -2.8820  -2.9260  -2.9697  -3.0130  -3.0560  -3.0985  -3.1406  -3.1822  -3.2233  -3.2639  -3.3039  -3.3434  -3.3822  -3.4203  -3.4577  -3.4942  -3.5299  -3.5646  -3.5982  -3.6306  -3.6616  -3.6911  -3.7190  -3.7450  -3.7689  -3.7906  -3.8099  -3.8265  -3.8402  -3.8510  -3.8586  -3.8630  -3.8639  -3.8614  -3.8555  -3.8460  -3.8332  -3.8170  -3.7975  -3.7750  -3.7497  -3.7217  -3.6914  -3.6590  -3.6247  -3.5888  -3.5514  -3.5129  -3.4732  -3.4327  -3.3914  -3.3494  -3.3068  -3.2637  -3.2202  -3.1762  -3.1319  -3.0873  -3.0425  -2.9973  -2.9519  -2.9064  -2.8606  -2.8147  -2.7687  -2.7225  -2.6762  -2.6299  -2.5835  -2.5370  -2.4905  -2.4439  -2.3971  -2.3501  -2.3024  -2.2539  -2.2041
3.630  -2.4047  -2.4517  -2.4985  -2.5452  -2.5916  -2.6378  -2.6837  -2.7294  -2.7749  -2.8200  -2.8649  -2.9094  -2.9537  -2.9976  -3.0411  -3.0843  -3.1271  -3.1695  -3.2114  -3.2530  -3.2940  -3.3346  -3.3747  -3.4143  -3.4533  -3.4917  -3.5295  -3.5666  -3.6030  -3.6386  -3.6733  -3.7071  -3.7399  -3.7715  -3.8019  -3.8308  -3.8583  -3.8841  -3.9080  -3.9299  -3.9495  -3.9668  -3.9815  -3.9934  -4.0024  -4.0083  -4.0109  -4.0103  -4.0063  -3.9989  -3.9881  -3.9739  -3.9565  -3.9359  -3.9124  -3.8862  -3.8575  -3.8265  -3.7936  -3.7589  -3.7226  -3.6850  -3.6463  -3.6065  -3.5659  -3.5246  -3.4826  -3.4400  -3.3970  -3.3535  -3.3096  -3.2654  -3.2209  -3.1762  -3.1312  -3.0859  -3.0405  -2.9949  -2.9492  -2.9034  -2.8574  -2.8114  -2.7653  -2.7191  -2.6728  -2.6262  -2.5793  -2.5317  -2.4832  -2.4332  -2.3812
3.620  -2.5755  -2.6220  -2.6683  -2.7143  -2.7601  -2.8056  -2.8509  -2.8958  -2.9405  -2.9848  -3.0289  -3.0725  -3.1158  -3.1588  -3.2014  -3.2435  -3.2853  -3.3266  -3.3675  -3.4080  -3.4480  -3.4874  -3.5264  -3.5649  -3.6028  -3.6401  -3.6768  -3.7128  -3.7481  -3.7827  -3.8164  -3.8493  -3.8812  -3.9121  -3.9418  -3.9703  -3.9974  -4.0230  -4.0469  -4.0689  -4.0890  -4.1069  -4.1224  -4.1355  -4.1458  -4.1532  -4.1576  -4.1589  -4.1569  -4.1516  -4.1429  -4.1308  -4.1155  -4.0971  -4.0756  -4.0514  -4.0246  -3.9954  -3.9641  -3.9309  -3.8961  -3.8598  -3.8222  -3.7836  -3.7439  -3.7035  -3.6623  -3.6204  -3.5781  -3.5352  -3.4919  -3.4482  -3.4042  -3.3599  -3.3153  -3.2705  -3.2255  -3.1803  -3.1350  -3.0895  -3.0439  -2.9982  -2.9524  -2.9063  -2.8600  -2.8133  -2.7658  -2.7172  -2.6669  -2.6144  -2.5592
3.610  -2.7488  -2.7947  -2.8403  -2.8856  -2.9306  -2.9753  -3.0197  -3.0638  -3.1076  -3.1510  -3.1940  -3.2367  -3.2790  -3.3208  -3.3623  -3.4034  -3.4440  -3.4842  -3.5239  -3.5632  -3.6020  -3.6403  -3.6780  -3.7153  -3.7520  -3.7881  -3.8236  -3.8585  -3.8927  -3.9262  -3.9590  -3.9909  -4.0220  -4.0521  -4.0811  -4.1090  -4.1357  -4.1611  -4.1849  -4.2071  -4.2276  -4.2460  -4.2624  -4.2764  -4.2879  -4.2968  -4.3028  -4.3058  -4.3056  -4.3023  -4.2957  -4.2859  -4.2728  -4.2566  -4.2374  -4.2154  -4.1907  -4.1637  -4.1344  -4.1032  -4.0702  -4.0356  -3.9996  -3.9624  -3.9241  -3.8849  -3.8448  -3.8040  -3.7626  -3.7206  -3.6780  -3.6351  -3.5917  -3.5481  -3.5041  -3.4598  -3.4153  -3.3706  -3.3257  -3.2807  -3.2355  -3.1901  -3.1445  -3.0985  -3.0519  -3.0045  -2.9559  -2.9053  -2.8523  -2.7961  -2.7365
3.600  -2.9243  -2.9693  -3.0141  -3.0585  -3.1026  -3.1464  -3.1899  -3.2329  -3.2757  -3.3180  -3.3599  -3.4015  -3.4426  -3.4833  -3.5236  -3.5634  -3.6028  -3.6417  -3.6802  -3.7182  -3.7557  -3.7927  -3.8293  -3.8652  -3.9007  -3.9356  -3.9699  -4.0035  -4.0366  -4.0690  -4.1007  -4.1316  -4.1618  -4.1911  -4.2194  -4.2467  -4.2730  -4.2980  -4.3217  -4.3439  -4.3645  -4.3834  -4.4003  -4.4151  -4.4275  -4.4375  -4.4448  -4.4493  -4.4508  -4.4492  -4.4446  -4.4368  -4.4259  -4.4120  -4.3951  -4.3755  -4.3533  -4.3287  -4.3019  -4.2730  -4.2423  -4.2099  -4.1760  -4.1408  -4.1044  -4.0669  -4.0284  -3.9891  -3.9490  -3.9083  -3.8669  -3.8250  -3.7827  -3.7399  -3.6967  -3.6532  -3.6095  -3.5654  -3.5211  -3.4766  -3.4318  -3.3867  -3.3411  -3.2949  -3.2477  -3.1989  -3.1481  -3.0943  -3.0371  -2.9760  -2.9111
3.590  -3.1013  -3.1454  -3.1892  -3.2327  -3.2757  -3.3184  -3.3608  -3.4027  -3.4442  -3.4854  -3.5261  -3.5664  -3.6063  -3.6457  -3.6847  -3.7232  -3.7613  -3.7989  -3.8360  -3.8727  -3.9089  -3.9446  -3.9797  -4.0144  -4.0485  -4.0821  -4.1152  -4.1476  -4.1795  -4.2108  -4.2414  -4.2713  -4.3005  -4.3289  -4.3564  -4.3831  -4.4087  -4.4333  -4.4566  -4.4787  -4.4992  -4.5182  -4.5353  -4.5505  -4.5635  -4.5742  -4.5824  -4.5879  -4.5906  -4.5905  -4.5874  -4.5814  -4.5725  -4.5607  -4.5462  -4.5291  -4.5095  -4.4876  -4.4635  -4.4374  -4.4094  -4.3797  -4.3485  -4.3158  -4.2818  -4.2466  -4.2104  -4.1732  -4.1350  -4.0961  -4.0564  -4.0161  -3.9752  -3.9338  -3.8918  -3.8495  -3.8067  -3.7636  -3.7202  -3.6763  -3.6320  -3.5871  -3.5413  -3.4944  -3.4457  -3.3945  -3.3401  -3.2816  -3.2188  -3.1518  -3.0817
3.580  -3.2795  -3.3225  -3.3651  -3.4074  -3.4493  -3.4908  -3.5319  -3.5726  -3.6128  -3.6527  -3.6921  -3.7310  -3.7695  -3.8076  -3.8452  -3.8823  -3.9190  -3.9552  -3.9910  -4.0263  -4.0610  -4.0953  -4.1291  -4.1625  -4.1953  -4.2275  -4.2593  -4.2905  -4.3212  -4.3512  -4.3807  -4.4096  -4.4377  -4.4652  -4.4919  -4.5177  -4.5426  -4.5666  -4.5894  -4.6109  -4.6311  -4.6498  -4.6668  -4.6819  -4.6950  -4.7059  -4.7145  -4.7205  -4.7240  -4.7248  -4.7228  -4.7182  -4.7109  -4.7010  -4.6886  -4.6738  -4.6568  -4.6375  -4.6163  -4.5931  -4.5682  -4.5416  -4.5135  -4.4839  -4.4529  -4.4207  -4.3873  -4.3528  -4.3174  -4.2809  -4.2436  -4.2055  -4.1667  -4.1272  -4.0871  -4.0464  -4.0052  -3.9634  -3.9210  -3.8780  -3.8343  -3.7894  -3.7431  -3.6946  -3.6433  -3.5882  -3.5285  -3.4638  -3.3945  -3.3217  -3.2470
3.570  -3.4581  -3.4999  -3.5413  -3.5823  -3.6229  -3.6630  -3.7028  -3.7421  -3.7810  -3.8194  -3.8574  -3.8949  -3.9320  -3.9686  -4.0047  -4.0404  -4.0757  -4.1104  -4.1447  -4.1786  -4.2119  -4.2448  -4.2772  -4.3091  -4.3406  -4.3715  -4.4020  -4.4319  -4.4613  -4.4902  -4.5185  -4.5462  -4.5733  -4.5997  -4.6254  -4.6503  -4.6744  -4.6975  -4.7195  -4.7404  -4.7599  -4.7780  -4.7944  -4.8091  -4.8218  -4.8325  -4.8409  -4.8469  -4.8506  -4.8518  -4.8505  -4.8467  -4.8406  -4.8321  -4.8215  -4.8086  -4.7938  -4.7771  -4.7585  -4.7382  -4.7164  -4.6930  -4.6681  -4.6419  -4.6144  -4.5856  -4.5556  -4.5244  -4.4922  -4.4590  -4.4248  -4.3896  -4.3536  -4.3168  -4.2792  -4.2408  -4.2016  -4.1617  -4.1209  -4.0790  -4.0357  -3.9905  -3.9429  -3.8918  -3.8363  -3.7756  -3.7092  -3.6376  -3.5621  -3.4844  -3.4065
3.560  -3.6366  -3.6771  -3.7171  -3.7567  -3.7958  -3.8346  -3.8729  -3.9107  -3.9481  -3.9850  -4.0215  -4.0575  -4.0931  -4.1282  -4.1629  -4.1971  -4.2308  -4.2641  -4.2969  -4.3293  -4.3612  -4.3926  -4.4236  -4.4542  -4.4842  -4.5138  -4.5430  -4.5716  -4.5998  -4.6274  -4.6545  -4.6810  -4.7070  -4.7323  -4.7569  -4.7808  -4.8038  -4.8259  -4.8470  -4.8669  -4.8855  -4.9027  -4.9183  -4.9322  -4.9442  -4.9541  -4.9620  -4.9677  -4.9711  -4.9722  -4.9711  -4.9677  -4.9623  -4.9547  -4.9453  -4.9339  -4.9209  -4.9062  -4.8899  -4.8722  -4.8531  -4.8327  -4.8110  -4.7880  -4.7639  -4.7387  -4.7123  -4.6848  -4.6562  -4.6266  -4.5960  -4.5644  -4.5319  -4.4984  -4.4639  -4.4285  -4.3920  -4.3544  -4.3154  -4.2747  -4.2317  -4.1856  -4.1355  -4.0804  -4.0192  -3.9516  -3.8781  -3.8002  -3.7199  -3.6394  -3.5602
3.550  -3.8144  -3.8534  -3.8919  -3.9300  -3.9677  -4.0049  -4.0416  -4.0779  -4.1137  -4.1491  -4.1841  -4.2185  -4.2526  -4.2861  -4.3193  -4.3519  -4.3841  -4.4159  -4.4473  -4.4782  -4.5086  -4.5386  -4.5682  -4.5973  -4.6260  -4.6543  -4.6821  -4.7094  -4.7363  -4.7627  -4.7886  -4.8139  -4.8387  -4.8628  -4.8863  -4.9090  -4.9309  -4.9519  -4.9718  -4.9906  -5.0081  -5.0242  -5.0388  -5.0516  -5.0626  -5.0717  -5.0787  -5.0836  -5.0865  -5.0872  -5.0858  -5.0825  -5.0773  -5.0703  -5.0615  -5.0512  -5.0394  -5.0262  -5.0117  -4.9960  -4.9792  -4.9613  -4.9423  -4.9222  -4.9012  -4.8792  -4.8562  -4.8322  -4.8073  -4.7814  -4.7546  -4.7267  -4.6979  -4.6681  -4.6372  -4.6051  -4.5717  -4.5366  -4.4994  -4.4596  -4.4161  -4.3680  -4.3141  -4.2534  -4.1856  -4.1113  -4.0319  -3.9499  -3.8674  -3.7863  -3.7074
3.540  -3.9909  -4.0284  -4.0653  -4.1018  -4.1379  -4.1735  -4.2086  -4.2433  -4.2775  -4.3113  -4.3447  -4.3776  -4.4100  -4.4420  -4.4736  -4.5047  -4.5354  -4.5657  -4.5955  -4.6250  -4.6540  -4.6826  -4.7107  -4.7385  -4.7658  -4.7927  -4.8192  -4.8453  -4.8709  -4.8960  -4.9206  -4.9447  -4.9683  -4.9912  -5.0135  -5.0350  -5.0558  -5.0755  -5.0943  -5.1119  -5.1282  -5.1431  -5.1564  -5.1681  -5.1779  -5.1859  -5.1919  -5.1959  -5.1979  -5.1980  -5.1962  -5.1926  -5.1873  -5.1804  -5.1721  -5.1623  -5.1513  -5.1392  -5.1259  -5.1117  -5.0966  -5.0805  -5.0636  -5.0459  -5.0274  -5.0081  -4.9879  -4.9670  -4.9453  -4.9228  -4.8994  -4.8751  -4.8499  -4.8236  -4.7961  -4.7671  -4.7364  -4.7033  -4.6672  -4.6271  -4.5818  -4.5302  -4.4712  -4.4045  -4.3307  -4.2516  -4.1693  -4.0862  -4.0042  -3.9245  -3.8474
3.530  -4.1656  -4.2014  -4.2367  -4.2715  -4.3059  -4.3399  -4.3734  -4.4064  -4.4390  -4.4712  -4.5030  -4.5343  -4.5651  -4.5956  -4.6256  -4.6552  -4.6844  -4.7132  -4.7416  -4.7696  -4.7971  -4.8243  -4.8511  -4.8775  -4.9035  -4.9291  -4.9543  -4.9791  -5.0034  -5.0273  -5.0507  -5.0736  -5.0959  -5.1177  -5.1388  -5.1591  -5.1786  -5.1971  -5.2146  -5.2310  -5.2460  -5.2596  -5.2717  -5.2820  -5.2906  -5.2974  -5.3023  -5.3053  -5.3065  -5.3058  -5.3034  -5.2993  -5.2938  -5.2868  -5.2785  -5.2691  -5.2585  -5.2470  -5.2346  -5.2214  -5.2074  -5.1927  -5.1773  -5.1613  -5.1447  -5.1274  -5.1096  -5.0911  -5.0719  -5.0521  -5.0315  -5.0101  -4.9877  -4.9642  -4.9393  -4.9125  -4.8832  -4.8507  -4.8138  -4.7714  -4.7223  -4.6655  -4.6010  -4.5294  -4.4523  -4.3717  -4.2898  -4.2087  -4.1295  -4.0529  -3.9790
3.520  -4.3379  -4.3720  -4.4056  -4.4388  -4.4715  -4.5038  -4.5356  -4.5670  -4.5980  -4.6286  -4.6587  -4.6884  -4.7177  -4.7466  -4.7751  -4.8032  -4.8309  -4.8583  -4.8852  -4.9118  -4.9380  -4.9638  -4.9893  -5.0143  -5.0390  -5.0634  -5.0873  -5.1108  -5.1339  -5.1566  -5.1788  -5.2006  -5.2217  -5.2423  -5.2622  -5.2813  -5.2996  -5.3169  -5.3331  -5.3482  -5.3619  -5.3742  -5.3849  -5.3940  -5.4013  -5.4068  -5.4106  -5.4125  -5.4127  -5.4112  -5.4081  -5.4036  -5.3976  -5.3904  -5.3821  -5.3727  -5.3624  -5.3513  -5.3394  -5.3269  -5.3137  -5.2999  -5.2856  -5.2708  -5.2555  -5.2398  -5.2235  -5.2067  -5.1894  -5.1715  -5.1529  -5.1334  -5.1128  -5.0909  -5.0670  -5.0406  -5.0106  -4.9760  -4.9356  -4.8882  -4.8333  -4.7710  -4.7021  -4.6281  -4.5508  -4.4721  -4.3938  -4.3169  -4.2423  -4.1701  -4.1005
3.510  -4.5074  -4.5398  -4.5717  -4.6031  -4.6342  -4.6648  -4.6950  -4.7248  -4.7541  -4.7831  -4.8117  -4.8398  -4.8676  -4.8950  -4.9220  -4.9487  -4.9750  -5.0009  -5.0264  -5.0517  -5.0765  -5.1010  -5.1252  -5.1490  -5.1724  -5.1955  -5.2183  -5.2406  -5.2626  -5.2841  -5.3052  -5.3257  -5.3457  -5.3651  -5.3838  -5.4018  -5.4188  -5.4349  -5.4499  -5.4636  -5.4760  -5.4870  -5.4964  -5.5041  -5.5102  -5.5145  -5.5170  -5.5179  -5.5172  -5.5149  -5.5111  -5.5060  -5.4996  -5.4921  -5.4837  -5.4743  -5.4641  -5.4532  -5.4417  -5.4296  -5.4169  -5.4038  -5.3902  -5.3763  -5.3619  -5.3471  -5.3319  -5.3163  -5.3001  -5.2833  -5.2657  -5.2471  -5.2270  -5.2049  -5.1800  -5.1514  -5.1177  -5.0778  -5.0308  -4.9763  -4.9151  -4.8481  -4.7770  -4.7033  -4.6287  -4.5543  -4.4813  -4.4101  -4.3411  -4.2745  -4.2101
3.500  -4.6738  -4.7044  -4.7346  -4.7644  -4.7938  -4.8228  -4.8513  -4.8795  -4.9073  -4.9347  -4.9617  -4.9884  -5.0147  -5.0407  -5.0663  -5.0915  -5.1164  -5.1410  -5.1652  -5.1891  -5.2127  -5.2360  -5.2589  -5.2815  -5.3038  -5.3257  -5.3473  -5.3685  -5.3894  -5.4098  -5.4297  -5.4492  -5.4681  -5.4863  -5.5039  -5.5206  -5.5365  -5.5513  -5.5650  -5.5775  -5.5886  -5.5982  -5.6062  -5.6126  -5.6174  -5.6205  -5.6219  -5.6218  -5.6201  -5.6170  -5.6125  -5.6069  -5.6001  -5.5923  -5.5837  -5.5743  -5.5641  -5.5534  -5.5420  -5.5302  -5.5180  -5.5053  -5.4922  -5.4788  -5.4651  -5.4509  -5.4363  -5.4213  -5.4056  -5.3892  -5.3716  -5.3525  -5.3312  -5.3068  -5.2783  -5.2444  -5.2038  -5.1558  -5.1004  -5.0384  -4.9716  -4.9017  -4.8305  -4.7593  -4.6888  -4.6199  -4.5529  -4.4880  -4.4253  -4.3647  -4.3061
3.490  -4.8368  -4.8657  -4.8942  -4.9224  -4.9501  -4.9775  -5.0045  -5.0311  -5.0574  -5.0833  -5.1089  -5.1341  -5.1590  -5.1836  -5.2078  -5.2317  -5.2553  -5.2786  -5.3016  -5.3243  -5.3467  -5.3688  -5.3906  -5.4120  -5.4332  -5.4540  -5.4745  -5.4947  -5.5145  -5.5338  -5.5527  -5.5711  -5.5889  -5.6060  -5.6224  -5.6380  -5.6527  -5.6663  -5.6787  -5.6898  -5.6996  -5.7078  -5.7146  -5.7197  -5.7232  -5.7251  -5.7254  -5.7243  -5.7217  -5.7178  -5.7127  -5.7066  -5.6994  -5.6913  -5.6825  -5.6730  -5.6628  -5.6521  -5.6410  -5.6294  -5.6174  -5.6050  -5.5923  -5.5792  -5.5657  -5.5519  -5.5375  -5.5225  -5.5066  -5.4895  -5.4706  -5.4494  -5.4248  -5.3957  -5.3609  -5.3191  -5.2695  -5.2122  -5.1483  -5.0799  -5.0093  -4.9384  -4.8685  -4.8004  -4.7345  -4.6710  -4.6099  -4.5511  -4.4945  -4.4398  -4.3869
3.480  -4.9962  -5.0235  -5.0504  -5.0769  -5.1031  -5.1290  -5.1545  -5.1796  -5.2045  -5.2290  -5.2531  -5.2770  -5.3006  -5.3238  -5.3468  -5.3694  -5.3918  -5.4139  -5.4357  -5.4573  -5.4785  -5.4995  -5.5202  -5.5406  -5.5607  -5.5806  -5.6000  -5.6192  -5.6379  -5.6563  -5.6741  -5.6915  -5.7082  -5.7243  -5.7396  -5.7540  -5.7674  -5.7798  -5.7909  -5.8007  -5.8092  -5.8161  -5.8215  -5.8253  -5.8276  -5.8283  -5.8276  -5.8255  -5.8221  -5.8175  -5.8118  -5.8051  -5.7976  -5.7892  -5.7802  -5.7706  -5.7604  -5.7497  -5.7386  -5.7271  -5.7152  -5.7030  -5.6904  -5.6774  -5.6639  -5.6498  -5.6351  -5.6193  -5.6021  -5.5830  -5.5613  -5.5359  -5.5059  -5.4699  -5.4268  -5.3758  -5.3168  -5.2509  -5.1801  -5.1072  -5.0344  -4.9636  -4.8955  -4.8306  -4.7689  -4.7102  -4.6543  -4.6008  -4.5495  -4.5001  -4.4521
3.470  -5.1520  -5.1777  -5.2031  -5.2281  -5.2528  -5.2772  -5.3013  -5.3251  -5.3485  -5.3717  -5.3945  -5.4171  -5.4394  -5.4615  -5.4832  -5.5047  -5.5260  -5.5470  -5.5677  -5.5882  -5.6084  -5.6283  -5.6480  -5.6675  -5.6866  -5.7054  -5.7240  -5.7421  -5.7599  -5.7773  -5.7942  -5.8105  -5.8262  -5.8412  -5.8553  -5.8686  -5.8808  -5.8919  -5.9018  -5.9103  -5.9173  -5.9229  -5.9270  -5.9296  -5.9307  -5.9303  -5.9286  -5.9255  -5.9213  -5.9160  -5.9098  -5.9026  -5.8947  -5.8860  -5.8768  -5.8670  -5.8566  -5.8459  -5.8347  -5.8231  -5.8110  -5.7986  -5.7856  -5.7720  -5.7577  -5.7424  -5.7257  -5.7073  -5.6865  -5.6626  -5.6348  -5.6023  -5.5640  -5.5191  -5.4668  -5.4069  -5.3400  -5.2679  -5.1931  -5.1183  -5.0457  -4.9764  -4.9110  -4.8494  -4.7915  -4.7370  -4.6855  -4.6365  -4.5895  -4.5442  -4.5000
3.460  -5.3041  -5.3284  -5.3523  -5.3759  -5.3993  -5.4223  -5.4450  -5.4675  -5.4897  -5.5116  -5.5333  -5.5547  -5.5758  -5.5967  -5.6174  -5.6378  -5.6580  -5.6779  -5.6977  -5.7171  -5.7364  -5.7554  -5.7742  -5.7927  -5.8109  -5.8288  -5.8464  -5.8637  -5.8806  -5.8970  -5.9129  -5.9282  -5.9429  -5.9568  -5.9698  -5.9819  -5.9929  -6.0027  -6.0112  -6.0184  -6.0241  -6.0284  -6.0312  -6.0325  -6.0324  -6.0309  -6.0282  -6.0243  -6.0193  -6.0134  -6.0065  -5.9989  -5.9905  -5.9815  -5.9720  -5.9619  -5.9513  -5.9403  -5.9288  -5.9168  -5.9042  -5.8911  -5.8772  -5.8623  -5.8462  -5.8285  -5.8087  -5.7862  -5.7604  -5.7306  -5.6962  -5.6564  -5.6104  -5.5577  -5.4976  -5.4303  -5.3569  -5.2799  -5.2021  -5.1261  -5.0537  -4.9857  -4.9224  -4.8634  -4.8085  -4.7572  -4.7088  -4.6629  -4.6189  -4.5764  -4.5347
3.450  -5.4528  -5.4757  -5.4983  -5.5206  -5.5426  -5.5644  -5.5859  -5.6072  -5.6282  -5.6490  -5.6695  -5.6898  -5.7099  -5.7297  -5.7494  -5.7688  -5.7880  -5.8070  -5.8258  -5.8444  -5.8628  -5.8809  -5.8988  -5.9164  -5.9338  -5.9509  -5.9676  -5.9840  -6.0000  -6.0155  -6.0304  -6.0447  -6.0584  -6.0712  -6.0830  -6.0939  -6.1036  -6.1121  -6.1193  -6.1250  -6.1294  -6.1323  -6.1338  -6.1339  -6.1326  -6.1301  -6.1264  -6.1216  -6.1159  -6.1092  -6.1017  -6.0935  -6.0846  -6.0752  -6.0651  -6.0545  -6.0434  -6.0317  -6.0195  -6.0066  -5.9929  -5.9782  -5.9623  -5.9449  -5.9256  -5.9039  -5.8794  -5.8514  -5.8194  -5.7831  -5.7418  -5.6951  -5.6421  -5.5822  -5.5150  -5.4413  -5.3628  -5.2826  -5.2034  -5.1277  -5.0566  -4.9906  -4.9297  -4.8734  -4.8212  -4.7724  -4.7265  -4.6829  -4.6410  -4.6003  -4.5603
3.440  -5.5982  -5.6198  -5.6412  -5.6623  -5.6831  -5.7037  -5.7241  -5.7442  -5.7642  -5.7839  -5.8034  -5.8227  -5.8418  -5.8607  -5.8795  -5.8980  -5.9163  -5.9344  -5.9524  -5.9701  -5.9876  -6.0049  -6.0220  -6.0388  -6.0554  -6.0717  -6.0876  -6.1031  -6.1182  -6.1327  -6.1467  -6.1600  -6.1726  -6.1842  -6.1949  -6.2044  -6.2128  -6.2199  -6.2257  -6.2300  -6.2330  -6.2345  -6.2347  -6.2335  -6.2311  -6.2275  -6.2227  -6.2170  -6.2104  -6.2029  -6.1946  -6.1856  -6.1760  -6.1657  -6.1548  -6.1433  -6.1311  -6.1182  -6.1044  -6.0896  -6.0737  -6.0563  -6.0371  -6.0158  -5.9919  -5.9650  -5.9348  -5.9008  -5.8628  -5.8202  -5.7726  -5.7193  -5.6595  -5.5927  -5.5192  -5.4404  -5.3588  -5.2774  -5.1990  -5.1252  -5.0567  -4.9935  -4.9354  -4.8817  -4.8319  -4.7854  -4.7414  -4.6995  -4.6591  -4.6196  -4.5807
3.430  -5.7406  -5.7610  -5.7812  -5.8012  -5.8209  -5.8405  -5.8598  -5.8790  -5.8979  -5.9167  -5.9353  -5.9537  -5.9719  -5.9899  -6.0078  -6.0255  -6.0430  -6.0603  -6.0775  -6.0944  -6.1112  -6.1277  -6.1440  -6.1601  -6.1758  -6.1913  -6.2063  -6.2210  -6.2352  -6.2488  -6.2617  -6.2739  -6.2853  -6.2957  -6.3050  -6.3132  -6.3202  -6.3258  -6.3300  -6.3329  -6.3344  -6.3344  -6.3332  -6.3307  -6.3269  -6.3221  -6.3161  -6.3093  -6.3015  -6.2929  -6.2835  -6.2733  -6.2624  -6.2508  -6.2384  -6.2252  -6.2110  -6.1958  -6.1795  -6.1617  -6.1423  -6.1210  -6.0974  -6.0713  -6.0423  -6.0100  -5.9743  -5.9347  -5.8909  -5.8424  -5.7886  -5.7290  -5.6629  -5.5902  -5.5121  -5.4306  -5.3485  -5.2686  -5.1928  -5.1221  -5.0569  -4.9969  -4.9416  -4.8904  -4.8428  -4.7980  -4.7556  -4.7150  -4.6757  -4.6372  -4.5991
3.420  -5.8802  -5.8995  -5.9187  -5.9376  -5.9564  -5.9750  -5.9934  -6.0116  -6.0297  -6.0476  -6.0653  -6.0829  -6.1003  -6.1175  -6.1346  -6.1515  -6.1683  -6.1848  -6.2012  -6.2174  -6.2334  -6.2492  -6.2647  -6.2800  -6.2950  -6.3096  -6.3238  -6.3375  -6.3506  -6.3632  -6.3750  -6.3860  -6.3960  -6.4051  -6.4129  -6.4196  -6.4249  -6.4289  -6.4315  -6.4326  -6.4324  -6.4308  -6.4279  -6.4238  -6.4185  -6.4121  -6.4046  -6.3961  -6.3867  -6.3764  -6.3652  -6.3532  -6.3402  -6.3263  -6.3114  -6.2955  -6.2783  -6.2599  -6.2400  -6.2185  -6.1950  -6.1694  -6.1414  -6.1107  -6.0770  -6.0399  -5.9992  -5.9544  -5.9052  -5.8512  -5.7919  -5.7269  -5.6558  -5.5794  -5.4992  -5.4177  -5.3375  -5.2606  -5.1883  -5.1213  -5.0594  -5.0024  -4.9496  -4.9006  -4.8547  -4.8114  -4.7702  -4.7306  -4.6921  -4.6543  -4.6168
3.410  -6.0172  -6.0356  -6.0538  -6.0719  -6.0897  -6.1075  -6.1250  -6.1424  -6.1597  -6.1767  -6.1937  -6.2105  -6.2271  -6.2436  -6.2599  -6.2761  -6.2921  -6.3079  -6.3236  -6.3391  -6.3543  -6.3693  -6.3840  -6.3984  -6.4125  -6.4262  -6.4394  -6.4520  -6.4640  -6.4753  -6.4858  -6.4953  -6.5038  -6.5111  -6.5172  -6.5220  -6.5255  -6.5274  -6.5280  -6.5271  -6.5249  -6.5212  -6.5162  -6.5099  -6.5025  -6.4939  -6.4841  -6.4733  -6.4615  -6.4486  -6.4348  -6.4199  -6.4041  -6.3872  -6.3692  -6.3501  -6.3298  -6.3081  -6.2849  -6.2599  -6.2330  -6.2039  -6.1721  -6.1375  -6.0995  -6.0580  -6.0126  -5.9630  -5.9091  -5.8505  -5.7869  -5.7179  -5.6439  -5.5660  -5.4862  -5.4066  -5.3294  -5.2562  -5.1876  -5.1240  -5.0651  -5.0106  -4.9600  -4.9126  -4.8682  -4.8260  -4.7857  -4.7468  -4.7089  -4.6716  -4.6346
3.400  -6.1520  -6.1695  -6.1869  -6.2041  -6.2212  -6.2381  -6.2548  -6.2715  -6.2879  -6.3043  -6.3205  -6.3365  -6.3524  -6.3681  -6.3837  -6.3991  -6.4144  -6.4294  -6.4443  -6.4589  -6.4733  -6.4874  -6.5012  -6.5146  -6.5276  -6.5401  -6.5520  -6.5632  -6.5738  -6.5834  -6.5921  -6.5998  -6.6062  -6.6114  -6.6153  -6.6177  -6.6186  -6.6180  -6.6160  -6.6124  -6.6074  -6.6009  -6.5931  -6.5840  -6.5736  -6.5620  -6.5493  -6.5355  -6.5208  -6.5050  -6.4884  -6.4708  -6.4523  -6.4329  -6.4126  -6.3911  -6.3685  -6.3444  -6.3188  -6.2913  -6.2615  -6.2292  -6.1940  -6.1555  -6.1134  -6.0676  -6.0180  -5.9644  -5.9067  -5.8447  -5.7781  -5.7070  -5.6320  -5.5545  -5.4764  -5.3998  -5.3261  -5.2564  -5.1913  -5.1306  -5.0742  -5.0217  -4.9726  -4.9266  -4.8831  -4.8417  -4.8020  -4.7636  -4.7261  -4.6892  -4.6525
3.390  -6.2848  -6.3015  -6.3181  -6.3345  -6.3508  -6.3669  -6.3829  -6.3988  -6.4145  -6.4300  -6.4454  -6.4607  -6.4758  -6.4907  -6.5055  -6.5200  -6.5344  -6.5485  -6.5624  -6.5760  -6.5892  -6.6021  -6.6146  -6.6266  -6.6381  -6.6489  -6.6590  -6.6683  -6.6767  -6.6841  -6.6903  -6.6953  -6.6989  -6.7011  -6.7018  -6.7010  -6.6986  -6.6947  -6.6893  -6.6823  -6.6739  -6.6642  -6.6531  -6.6409  -6.6277  -6.6134  -6.5982  -6.5821  -6.5652  -6.5476  -6.5293  -6.5102  -6.4902  -6.4695  -6.4477  -6.4248  -6.4005  -6.3746  -6.3468  -6.3168  -6.2841  -6.2485  -6.2095  -6.1671  -6.1211  -6.0714  -6.0183  -5.9616  -5.9014  -5.8373  -5.7692  -5.6976  -5.6231  -5.5473  -5.4719  -5.3985  -5.3281  -5.2616  -5.1992  -5.1408  -5.0863  -5.0353  -4.9874  -4.9422  -4.8993  -4.8584  -4.8191  -4.7810  -4.7437  -4.7070  -4.6706
3.380  -6.4156  -6.4315  -6.4473  -6.4629  -6.4784  -6.4937  -6.5089  -6.5239  -6.5387  -6.5534  -6.5679  -6.5822  -6.5963  -6.6102  -6.6239  -6.6373  -6.6504  -6.6632  -6.6756  -6.6876  -6.6992  -6.7102  -6.7207  -6.7306  -6.7397  -6.7479  -6.7553  -6.7616  -6.7668  -6.7708  -6.7734  -6.7747  -6.7746  -6.7730  -6.7699  -6.7654  -6.7594  -6.7521  -6.7435  -6.7336  -6.7225  -6.7104  -6.6973  -6.6833  -6.6685  -6.6529  -6.6366  -6.6195  -6.6018  -6.5835  -6.5644  -6.5445  -6.5238  -6.5021  -6.4793  -6.4550  -6.4291  -6.4012  -6.3709  -6.3379  -6.3019  -6.2626  -6.2199  -6.1737  -6.1242  -6.0716  -6.0161  -5.9577  -5.8962  -5.8313  -5.7631  -5.6921  -5.6192  -5.5458  -5.4733  -5.4028  -5.3354  -5.2714  -5.2112  -5.1545  -5.1013  -5.0513  -5.0041  -4.9594  -4.9168  -4.8761  -4.8369  -4.7989  -4.7617  -4.7252  -4.6889
3.370  -6.5440  -6.5590  -6.5739  -6.5886  -6.6031  -6.6174  -6.6316  -6.6455  -6.6592  -6.6727  -6.6859  -6.6989  -6.7115  -6.7238  -6.7357  -6.7473  -6.7583  -6.7689  -6.7790  -6.7885  -6.7972  -6.8053  -6.8126  -6.8190  -6.8244  -6.8289  -6.8323  -6.8346  -6.8358  -6.8358  -6.8346  -6.8322  -6.8286  -6.8238  -6.8179  -6.8108  -6.8027  -6.7935  -6.7833  -6.7722  -6.7601  -6.7472  -6.7334  -6.7189  -6.7036  -6.6877  -6.6710  -6.6537  -6.6357  -6.6170  -6.5975  -6.5771  -6.5556  -6.5330  -6.5088  -6.4829  -6.4549  -6.4245  -6.3912  -6.3549  -6.3153  -6.2723  -6.2260  -6.1768  -6.1250  -6.0707  -6.0141  -5.9551  -5.8934  -5.8289  -5.7616  -5.6921  -5.6212  -5.5503  -5.4805  -5.4126  -5.3475  -5.2855  -5.2268  -5.1713  -5.1189  -5.0694  -5.0225  -4.9780  -4.9355  -4.8947  -4.8554  -4.8173  -4.7801  -4.7435  -4.7072
3.360  -6.6687  -6.6826  -6.6963  -6.7097  -6.7228  -6.7357  -6.7482  -6.7605  -6.7724  -6.7839  -6.7950  -6.8056  -6.8157  -6.8253  -6.8343  -6.8427  -6.8505  -6.8575  -6.8638  -6.8693  -6.8741  -6.8780  -6.8811  -6.8834  -6.8849  -6.8855  -6.8853  -6.8844  -6.8826  -6.8799  -6.8765  -6.8722  -6.8670  -6.8609  -6.8540  -6.8462  -6.8374  -6.8278  -6.8173  -6.8059  -6.7937  -6.7807  -6.7669  -6.7524  -6.7371  -6.7211  -6.7044  -6.6870  -6.6688  -6.6497  -6.6297  -6.6086  -6.5862  -6.5623  -6.5364  -6.5084  -6.4778  -6.4443  -6.4077  -6.3678  -6.3247  -6.2785  -6.2298  -6.1787  -6.1258  -6.0711  -6.0145  -5.9559  -5.8949  -5.8314  -5.7656  -5.6979  -5.6293  -5.5607  -5.4932  -5.4274  -5.3640  -5.3034  -5.2457  -5.1908  -5.1388  -5.0895  -5.0425  -4.9978  -4.9551  -4.9141  -4.8746  -4.8362  -4.7988  -4.7621  -4.7257
3.350  -6.7866  -6.7986  -6.8103  -6.8215  -6.8323  -6.8427  -6.8526  -6.8619  -6.8706  -6.8788  -6.8863  -6.8931  -6.8993  -6.9048  -6.9096  -6.9137  -6.9172  -6.9201  -6.9224  -6.9241  -6.9253  -6.9260  -6.9262  -6.9259  -6.9252  -6.9240  -6.9222  -6.9200  -6.9171  -6.9137  -6.9096  -6.9049  -6.8994  -6.8931  -6.8861  -6.8783  -6.8696  -6.8600  -6.8496  -6.8384  -6.8263  -6.8135  -6.7998  -6.7854  -6.7702  -6.7542  -6.7375  -6.7199  -6.7014  -6.6820  -6.6613  -6.6392  -6.6155  -6.5897  -6.5617  -6.5310  -6.4973  -6.4605  -6.4204  -6.3774  -6.3315  -6.2833  -6.2332  -6.1816  -6.1288  -6.0746  -6.0189  -5.9613  -5.9015  -5.8395  -5.7754  -5.7097  -5.6431  -5.5766  -5.5109  -5.4467  -5.3846  -5.3248  -5.2676  -5.2129  -5.1609  -5.1113  -5.0641  -5.0190  -4.9758  -4.9343  -4.8943  -4.8556  -4.8178  -4.7808  -4.7444
3.340  -6.8902  -6.8991  -6.9073  -6.9149  -6.9219  -6.9282  -6.9339  -6.9389  -6.9433  -6.9470  -6.9503  -6.9530  -6.9552  -6.9570  -6.9585  -6.9595  -6.9603  -6.9608  -6.9611  -6.9610  -6.9608  -6.9603  -6.9595  -6.9585  -6.9571  -6.9554  -6.9533  -6.9508  -6.9479  -6.9444  -6.9403  -6.9356  -6.9302  -6.9241  -6.9172  -6.9095  -6.9011  -6.8917  -6.8816  -6.8706  -6.8587  -6.8461  -6.8326  -6.8183  -6.8032  -6.7873  -6.7705  -6.7527  -6.7338  -6.7137  -6.6920  -6.6686  -6.6431  -6.6151  -6.5843  -6.5506  -6.5137  -6.4737  -6.4308  -6.3854  -6.3379  -6.2888  -6.2386  -6.1875  -6.1355  -6.0824  -6.0279  -5.9717  -5.9135  -5.8531  -5.7907  -5.7269  -5.6622  -5.5974  -5.5331  -5.4700  -5.4086  -5.3492  -5.2921  -5.2374  -5.1850  -5.1349  -5.0870  -5.0413  -4.9974  -4.9553  -4.9147  -4.8754  -4.8372  -4.7998  -4.7631
3.330  -6.9682  -6.9726  -6.9764  -6.9796  -6.9823  -6.9846  -6.9865  -6.9881  -6.9893  -6.9904  -6.9911  -6.9917  -6.9922  -6.9925  -6.9926  -6.9927  -6.9926  -6.9924  -6.9921  -6.9917  -6.9911  -6.9903  -6.9894  -6.9882  -6.9868  -6.9851  -6.9830  -6.9806  -6.9777  -6.9743  -6.9703  -6.9658  -6.9606  -6.9547  -6.9481  -6.9406  -6.9324  -6.9234  -6.9135  -6.9027  -6.8912  -6.8787  -6.8655  -6.8514  -6.8364  -6.8204  -6.8035  -6.7853  -6.7658  -6.7447  -6.7217  -6.6964  -6.6686  -6.6379  -6.6042  -6.5674  -6.5277  -6.4852  -6.4403  -6.3937  -6.3458  -6.2969  -6.2475  -6.1975  -6.1468  -6.0951  -6.0421  -5.9874  -5.9307  -5.8720  -5.8114  -5.7492  -5.6861  -5.6226  -5.5593  -5.4970  -5.4359  -5.3766  -5.3193  -5.2641  -5.2111  -5.1602  -5.1115  -5.0648  -5.0201  -4.9771  -4.9357  -4.8957  -4.8569  -4.8191  -4.7821
3.320  -7.0172  -7.0185  -7.0195  -7.0203  -7.0209  -7.0214  -7.0218  -7.0221  -7.0223  -7.0225  -7.0226  -7.0226  -7.0226  -7.0226  -7.0224  -7.0223  -7.0220  -7.0217  -7.0213  -7.0208  -7.0202  -7.0194  -7.0185  -7.0173  -7.0159  -7.0143  -7.0123  -7.0100  -7.0072  -7.0040  -7.0002  -6.9959  -6.9909  -6.9853  -6.9789  -6.9717  -6.9638  -6.9550  -6.9455  -6.9351  -6.9238  -6.9117  -6.8986  -6.8847  -6.8698  -6.8537  -6.8365  -6.8177  -6.7972  -6.7748  -6.7499  -6.7224  -6.6920  -6.6585  -6.6220  -6.5827  -6.5407  -6.4967  -6.4511  -6.4043  -6.3568  -6.3089  -6.2607  -6.2120  -6.1628  -6.1127  -6.0612  -6.0080  -5.9529  -5.8958  -5.8367  -5.7760  -5.7142  -5.6517  -5.5892  -5.5273  -5.4664  -5.4068  -5.3490  -5.2931  -5.2391  -5.1873  -5.1375  -5.0897  -5.0439  -4.9999  -4.9575  -4.9167  -4.8772  -4.8387  -4.8011
3.310  -7.0509  -7.0512  -7.0514  -7.0515  -7.0516  -7.0517  -7.0517  -7.0518  -7.0518  -7.0517  -7.0517  -7.0516  -7.0515  -7.0514  -7.0513  -7.0510  -7.0508  -7.0505  -7.0501  -7.0496  -7.0490  -7.0482  -7.0474  -7.0463  -7.0450  -7.0434  -7.0415  -7.0393  -7.0367  -7.0337  -7.0301  -7.0260  -7.0212  -7.0158  -7.0097  -7.0029  -6.9953  -6.9869  -6.9777  -6.9677  -6.9568  -6.9450  -6.9323  -6.9185  -6.9036  -6.8873  -6.8695  -6.8498  -6.8280  -6.8037  -6.7767  -6.7467  -6.7137  -6.6777  -6.6389  -6.5978  -6.5547  -6.5101  -6.4646  -6.4184  -6.3718  -6.3252  -6.2783  -6.2311  -6.1834  -6.1347  -6.0846  -6.0329  -5.9793  -5.9237  -5.8661  -5.8067  -5.7460  -5.6844  -5.6225  -5.5607  -5.4997  -5.4397  -5.3811  -5.3243  -5.2692  -5.2162  -5.1651  -5.1161  -5.0690  -5.0237  -4.9802  -4.9383  -4.8978  -4.8586  -4.8203
3.300  -7.0804  -7.0805  -7.0805  -7.0805  -7.0805  -7.0805  -7.0805  -7.0805  -7.0804  -7.0804  -7.0803  -7.0802  -7.0801  -7.0800  -7.0799  -7.0797  -7.0794  -7.0791  -7.0787  -7.0783  -7.0777  -7.0770  -7.0762  -7.0752  -7.0740  -7.0725  -7.0707  -7.0687  -7.0662  -7.0633  -7.0600  -7.0561  -7.0516  -7.0466  -7.0408  -7.0344  -7.0272  -7.0193  -7.0105  -7.0010  -6.9905  -6.9791  -6.9666  -6.9530  -6.9379  -6.9211  -6.9024  -6.8815  -6.8579  -6.8316  -6.8022  -6.7699  -6.7346  -6.6967  -6.6565  -6.6145  -6.5711  -6.5267  -6.4817  -6.4365  -6.3911  -6.3457  -6.3001  -6.2543  -6.2078  -6.1605  -6.1118  -6.0615  -6.0092  -5.9550  -5.8986  -5.8405  -5.7807  -5.7198  -5.6583  -5.5966  -5.5353  -5.4748  -5.4154  -5.3574  -5.3012  -5.2467  -5.1942  -5.1437  -5.0951  -5.0485  -5.0036  -4.9604  -4.9188  -4.8785  -4.8393
3.290  -7.1091  -7.1091  -7.1091  -7.1091  -7.1091  -7.1090  -7.1090  -7.1090  -7.1089  -7.1089  -7.1088  -7.1088  -7.1087  -7.1085  -7.1084  -7.1082  -7.1080  -7.1077  -7.1073  -7.1069  -7.1064  -7.1058  -7.1050  -7.1041  -7.1029  -7.1016  -7.1000  -7.0980  -7.0958  -7.0931  -7.0900  -7.0864  -7.0823  -7.0776  -7.0723  -7.0663  -7.0597  -7.0523  -7.0442  -7.0352  -7.0252  -7.0142  -7.0020  -6.9882  -6.9728  -6.9552  -6.9353  -6.9127  -6.8873  -6.8588  -6.8273  -6.7931  -6.7563  -6.7172  -6.6764  -6.6343  -6.5911  -6.5473  -6.5032  -6.4589  -6.4146  -6.3702  -6.3257  -6.2808  -6.2353  -6.1888  -6.1410  -6.0916  -6.0403  -5.9870  -5.9316  -5.8742  -5.8152  -5.7548  -5.6935  -5.6318  -5.5701  -5.5090  -5.4488  -5.3898  -5.3323  -5.2765  -5.2225  -5.1704  -5.1202  -5.0719  -5.0255  -4.9808  -4.9377  -4.8960  -4.8555
3.280  -7.1375  -7.1375  -7.1375  -7.1375  -7.1375  -7.1375  -7.1375  -7.1374  -7.1374  -7.1373  -7.1373  -7.1372  -7.1371  -7.1370  -7.1369  -7.1367  -7.1365  -7.1363  -7.1359  -7.1356  -7.1351  -7.1345  -7.1338  -7.1330  -7.1319  -7.1307  -7.1293  -7.1275  -7.1255  -7.1231  -7.1203  -7.1171  -7.1134  -7.1092  -7.1045  -7.0992  -7.0932  -7.0865  -7.0791  -7.0707  -7.0613  -7.0506  -7.0384  -7.0244  -7.0081  -6.9895  -6.9681  -6.9437  -6.9164  -6.8861  -6.8530  -6.8174  -6.7796  -6.7401  -6.6992  -6.6573  -6.6147  -6.5716  -6.5283  -6.4849  -6.4415  -6.3980  -6.3543  -6.3102  -6.2654  -6.2197  -6.1727  -6.1241  -6.0737  -6.0212  -5.9667  -5.9100  -5.8516  -5.7916  -5.7305  -5.6687  -5.6067  -5.5450  -5.4838  -5.4237  -5.3649  -5.3076  -5.2520  -5.1983  -5.1464  -5.0964  -5.0482  -5.0019  -4.9571  -4.9139  -4.8721
3.270  -7.1659  -7.1659  -7.1659  -7.1659  -7.1659  -7.1659  -7.1659  -7.1658  -7.1658  -7.1658  -7.1657  -7.1657  -7.1656  -7.1655  -7.1654  -7.1652  -7.1650  -7.1648  -7.1645  -7.1642  -7.1638  -7.1633  -7.1627  -7.1620  -7.1611  -7.1600  -7.1588  -7.1573  -7.1556  -7.1535  -7.1512  -7.1485  -7.1454  -7.1419  -7.1379  -7.1333  -7.1282  -7.1224  -7.1157  -7.1079  -7.0989  -7.0883  -7.0758  -7.0611  -7.0439  -7.0238  -7.0008  -6.9748  -6.9459  -6.9142  -6.8800  -6.8436  -6.8054  -6.7658  -6.7251  -6.6836  -6.6415  -6.5991  -6.5566  -6.5139  -6.4712  -6.4284  -6.3853  -6.3418  -6.2977  -6.2527  -6.2064  -6.1586  -6.1089  -6.0573  -6.0035  -5.9476  -5.8897  -5.8301  -5.7692  -5.7073  -5.6449  -5.5825  -5.5205  -5.4592  -5.3990  -5.3402  -5.2830  -5.2275  -5.1738  -5.1220  -5.0720  -5.0238  -4.9774  -4.9325  -4.8891
3.260  -7.1943  -7.1943  -7.1943  -7.1943  -7.1943  -7.1943  -7.1942  -7.1942  -7.1942  -7.1942  -7.1941  -7.1941  -7.1940  -7.1939  -7.1938  -7.1937  -7.1936  -7.1934  -7.1932  -7.1929  -7.1926  -7.1922  -7.1917  -7.1911  -7.1905  -7.1897  -7.1887  -7.1876  -7.1863  -7.1848  -7.1830  -7.1810  -7.1787  -7.1760  -7.1729  -7.1694  -7.1651  -7.1601  -7.1541  -7.1467  -7.1378  -7.1270  -7.1139  -7.0983  -7.0798  -7.0584  -7.0339  -7.0066  -6.9764  -6.9438  -6.9089  -6.8721  -6.8338  -6.7943  -6.7539  -6.7128  -6.6712  -6.6294  -6.5874  -6.5453  -6.5032  -6.4609  -6.4183  -6.3754  -6.3318  -6.2873  -6.2417  -6.1945  -6.1456  -6.0947  -6.0417  -5.9865  -5.9292  -5.8700  -5.8092  -5.7473  -5.6846  -5.6215  -5.5586  -5.4962  -5.4346  -5.3743  -5.3154  -5.2581  -5.2025  -5.1487  -5.0968  -5.0468  -4.9985  -4.9518  -4.9067
3.250  -7.2226  -7.2226  -7.2226  -7.2226  -7.2226  -7.2226  -7.2226  -7.2226  -7.2226  -7.2225  -7.2225  -7.2225  -7.2224  -7.2224  -7.2223  -7.2223  -7.2222  -7.2221  -7.2219  -7.2218  -7.2216  -7.2213  -7.2211  -7.2207  -7.2204  -7.2199  -7.2194  -7.2188  -7.2181  -7.2173  -7.2164  -7.2152  -7.2139  -7.2122  -7.2101  -7.2075  -7.2041  -7.1997  -7.1940  -7.1868  -7.1776  -7.1663  -7.1523  -7.1356  -7.1160  -7.0934  -7.0678  -7.0394  -7.0084  -6.9751  -6.9399  -6.9030  -6.8647  -6.8253  -6.7852  -6.7445  -6.7033  -6.6619  -6.6204  -6.5787  -6.5370  -6.4951  -6.4529  -6.4104  -6.3673  -6.3233  -6.2781  -6.2316  -6.1834  -6.1332  -6.0809  -6.0263  -5.9696  -5.9109  -5.8504  -5.7884  -5.7254  -5.6618  -5.5980  -5.5345  -5.4717  -5.4098  -5.3492  -5.2900  -5.2325  -5.1768  -5.1229  -5.0709  -5.0206  -4.9721  -4.9251
3.240  -7.2509  -7.2509  -7.2509  -7.2509  -7.2509  -7.2509  -7.2509  -7.2509  -7.2509  -7.2509  -7.2509  -7.2509  -7.2509  -7.2509  -7.2509  -7.2509  -7.2509  -7.2509  -7.2509  -7.2509  -7.2509  -7.2510  -7.2510  -7.2511  -7.2512  -7.2513  -7.2514  -7.2515  -7.2517  -7.2518  -7.2518  -7.2517  -7.2513  -7.2506  -7.2494  -7.2475  -7.2446  -7.2405  -7.2349  -7.2274  -7.2177  -7.2056  -7.1908  -7.1732  -7.1525  -7.1289  -7.1025  -7.0734  -7.0419  -7.0083  -6.9729  -6.9359  -6.8977  -6.8586  -6.8187  -6.7782  -6.7374  -6.6963  -6.6551  -6.6137  -6.5723  -6.5307  -6.4888  -6.4466  -6.4038  -6.3602  -6.3155  -6.2695  -6.2219  -6.1724  -6.1208  -6.0670  -6.0109  -5.9526  -5.8924  -5.8305  -5.7673  -5.7032  -5.6387  -5.5742  -5.5101  -5.4467  -5.3844  -5.3235  -5.2640  -5.2063  -5.1503  -5.0962  -5.0439  -4.9934  -4.9446
3.230  -7.2792  -7.2792  -7.2792  -7.2792  -7.2792  -7.2792  -7.2792  -7.2793  -7.2793  -7.2793  -7.2794  -7.2794  -7.2795  -7.2795  -7.2796  -7.2798  -7.2799  -7.2801  -7.2804  -7.2807  -7.2810  -7.2815  -7.2820  -7.2827  -7.2834  -7.2843  -7.2853  -7.2864  -7.2875  -7.2886  -7.2896  -7.2904  -7.2909  -7.2909  -7.2903  -7.2887  -7.2860  -7.2818  -7.2759  -7.2679  -7.2577  -7.2449  -7.2293  -7.2109  -7.1895  -7.1653  -7.1383  -7.1088  -7.0770  -7.0432  -7.0077  -6.9708  -6.9327  -6.8937  -6.8540  -6.8138  -6.7731  -6.7323  -6.6912  -6.6500  -6.6087  -6.5673  -6.5256  -6.4836  -6.4411  -6.3978  -6.3536  -6.3081  -6.2610  -6.2121  -6.1612  -6.1081  -6.0526  -5.9949  -5.9351  -5.8734  -5.8101  -5.7457  -5.6805  -5.6151  -5.5498  -5.4850  -5.4211  -5.3584  -5.2970  -5.2373  -5.1792  -5.1230  -5.0686  -5.0160  -4.9651
3.220  -7.3074  -7.3074  -7.3075  -7.3075  -7.3075  -7.3075  -7.3076  -7.3077  -7.3077  -7.3078  -7.3079  -7.3081  -7.3083  -7.3085  -7.3088  -7.3091  -7.3096  -7.3101  -7.3107  -7.3115  -7.3124  -7.3135  -7.3148  -7.3163  -7.3179  -7.3197  -7.3216  -7.3237  -7.3257  -7.3277  -7.3294  -7.3309  -7.3319  -7.3322  -7.3317  -7.3301  -7.3273  -7.3228  -7.3165  -7.3081  -7.2973  -7.2839  -7.2678  -7.2489  -7.2271  -7.2025  -7.1753  -7.1456  -7.1137  -7.0799  -7.0444  -7.0076  -6.9695  -6.9306  -6.8910  -6.8508  -6.8103  -6.7695  -6.7285  -6.6874  -6.6461  -6.6048  -6.5632  -6.5213  -6.4789  -6.4359  -6.3920  -6.3469  -6.3004  -6.2522  -6.2019  -6.1495  -6.0947  -6.0376  -5.9783  -5.9168  -5.8536  -5.7890  -5.7233  -5.6571  -5.5908  -5.5247  -5.4593  -5.3948  -5.3316  -5.2698  -5.2096  -5.1512  -5.0946  -5.0399  -4.9869
3.210  -7.3356  -7.3357  -7.3357  -7.3358  -7.3359  -7.3359  -7.3360  -7.3362  -7.3364  -7.3366  -7.3368  -7.3372  -7.3376  -7.3380  -7.3387  -7.3394  -7.3403  -7.3414  -7.3426  -7.3441  -7.3458  -7.3478  -7.3500  -7.3524  -7.3549  -7.3577  -7.3604  -7.3632  -7.3659  -7.3684  -7.3705  -7.3722  -7.3733  -7.3736  -7.3729  -7.3711  -7.3679  -7.3632  -7.3565  -7.3478  -7.3367  -7.3231  -7.3068  -7.2877  -7.2658  -7.2411  -7.2139  -7.1842  -7.1523  -7.1185  -7.0830  -7.0461  -7.0081  -6.9691  -6.9294  -6.8892  -6.8486  -6.8077  -6.7666  -6.7254  -6.6842  -6.6427  -6.6012  -6.5593  -6.5171  -6.4743  -6.4307  -6.3860  -6.3400  -6.2923  -6.2427  -6.1910  -6.1370  -6.0806  -6.0218  -5.9607  -5.8977  -5.8330  -5.7671  -5.7002  -5.6330  -5.5657  -5.4988  -5.4327  -5.3677  -5.3039  -5.2417  -5.1811  -5.1223  -5.0653  -5.0101
3.200  -7.3639  -7.3640  -7.3641  -7.3642  -7.3643  -7.3645  -7.3647  -7.3650  -7.3654  -7.3658  -7.3663  -7.3670  -7.3678  -7.3687  -7.3699  -7.3712  -7.3729  -7.3747  -7.3768  -7.3792  -7.3819  -7.3848  -7.3878  -7.3911  -7.3944  -7.3977  -7.4010  -7.4041  -7.4070  -7.4096  -7.4117  -7.4133  -7.4142  -7.4143  -7.4135  -7.4114  -7.4081  -7.4032  -7.3964  -7.3877  -7.3767  -7.3632  -7.3471  -7.3282  -7.3065  -7.2820  -7.2548  -7.2251  -7.1932  -7.1592  -7.1235  -7.0864  -7.0481  -7.0089  -6.9689  -6.9285  -6.8876  -6.8465  -6.8053  -6.7640  -6.7226  -6.6811  -6.6394  -6.5976  -6.5555  -6.5128  -6.4694  -6.4251  -6.3795  -6.3324  -6.2835  -6.2326  -6.1793  -6.1236  -6.0655  -6.0050  -5.9423  -5.8777  -5.8116  -5.7443  -5.6763  -5.6080  -5.5398  -5.4722  -5.4054  -5.3397  -5.2754  -5.2126  -5.1516  -5.0923  -5.0349
#
# AESOPUS computation completed
