#  Calculations performed with AESOPUS via the web interface: http://stev.oapd.inaf.it/aesopus
#  Date:  11/07/2019; Central European Time  01:18:08
#  Tables of Rosseland mean opacities
#  Reference paper: Marigo & Aringer (2009, A&A, 508, 1539)
#
#  Definitions:
#  The base-10 logarithm of the Rosseland mean opacity [cm**2/g] as a function
#  of log10(T) for columns of constant log10(R), where:
#  R=density[g/cm**3]/T6**3, T6=1.e-6*T[K]
#
#  Ranges of state parameters
#
#  log10(T) range: nt=  67  values from  4.500  to  3.200
#  log10(T) = [3.200,3.700] in steps of  0.010
#  log10(T) = ]3.700,4.500] in steps of  0.050
#
#  log10(R) range: nre= 91  values from -8.000  to  1.000
#                           in steps of  0.100
#
#
#  Composition parameters:
#
#       X     = hydrogen mass fraction
#               mh =  1 values from 0.700 to 0.700 in steps of 0.200
#       Zref  = 1.500000E-02  reference metallicity
#       Z     = actual metallicity
#
#       Reference solar mixture: Grevesse & Sauval 1998 ---- Zsun =  0.01696  (C/O)sun =  0.48978
#
#     Zi   element   (ni/nz)sun         (Xi/Z)sun         <Ai>
#
#      3     Li     9.323684E-09     3.757845E-09     6.941739E+00
#      4     Be     1.859891E-08     9.731966E-09     9.012183E+00
#      5     B      2.627166E-07     1.649247E-07     1.081222E+01
#      6     C      2.451814E-01     1.709837E-01     1.201114E+01
#      7     N      6.158679E-02     5.008508E-02     1.400676E+01
#      8     O      5.005962E-01     4.650221E-01     1.599938E+01
#      9     F      2.688361E-05     2.965430E-05     1.899841E+01
#     10     Ne     8.904049E-02     1.042809E-01     2.017132E+01
#     11     Na     1.583024E-03     2.113028E-03     2.298977E+01
#     12     Mg     2.814411E-02     3.972350E-02     2.430955E+01
#     13     Al     2.184679E-03     3.422452E-03     2.698154E+01
#     14     Si     2.627166E-02     4.284049E-02     2.808561E+01
#     15     P      2.086832E-04     3.752879E-04     3.097377E+01
#     16     S      1.583024E-02     2.947097E-02     3.206445E+01
#     17     Cl     2.341464E-04     4.820356E-04     3.545753E+01
#     18     Ar     1.859891E-03     4.313819E-03     3.994766E+01
#     19     K      9.758600E-05     2.215449E-04     3.910130E+01
#     20     Ca     1.696632E-03     3.947852E-03     4.007654E+01
#     21     Sc     1.094933E-06     2.857969E-06     4.495592E+01
#     22     Ti     7.753317E-05     2.155336E-04     4.787893E+01
#     23     V      7.404360E-06     2.189994E-05     5.094157E+01
#     24     Cr     3.463279E-04     1.045572E-03     5.199762E+01
#     25     Mn     1.817136E-04     5.796206E-04     5.493805E+01
#     26     Fe     2.341464E-02     7.592291E-02     5.584731E+01
#     27     Co     6.158679E-05     2.107320E-04     5.893319E+01
#     28     Ni     1.316702E-03     4.487945E-03     5.870525E+01
#     29     Cu     1.201123E-05     4.431668E-05     6.354723E+01
#     30     Zn     2.947729E-05     1.119080E-04     6.538687E+01
#     31     Ga     5.616782E-07     2.273583E-06     6.971723E+01
#     32     Ge     1.903214E-06     8.025819E-06     7.263045E+01
#     33     As     1.736151E-07     7.552272E-07     7.492160E+01
#     34     Se     1.903214E-06     8.728593E-06     7.899028E+01
#     35     Br     3.158548E-07     1.465389E-06     7.990652E+01
#     36     Kr     1.511428E-06     7.353928E-06     8.380092E+01
#     37     Rb     2.947729E-07     1.462765E-06     8.546807E+01
#     38     Sr     6.910151E-07     3.515251E-06     8.761646E+01
#     39     Y      1.287027E-07     6.643562E-07     8.890587E+01
#     40     Zr     2.947729E-07     1.561272E-06     9.122375E+01
#     41     Nb     1.947545E-08     1.050549E-07     9.290638E+01
#     42     Mo     6.158679E-08     3.428800E-07     9.588960E+01
#     43     Tc     0.000000E+00     0.000000E+00     9.690639E+01
#     44     Ru     5.122566E-08     3.005927E-07     1.010666E+02
#     45     Rh     9.758600E-09     5.830546E-08     1.029055E+02
#     46     Pd     3.626499E-08     2.240978E-07     1.064307E+02
#     47     Ag     6.448928E-09     4.038921E-08     1.078685E+02
#     48     Cd     4.360011E-08     2.845931E-07     1.124227E+02
#     49     In     3.384446E-08     2.256221E-07     1.148183E+02
#     50     Sn     7.404360E-08     5.104404E-07     1.187338E+02
#     51     Sb     7.404360E-09     5.234457E-08     1.217590E+02
#     52     Te     1.287027E-07     9.537093E-07     1.276278E+02
#     53     I      2.395452E-08     1.765011E-07     1.269045E+02
#     54     Xe     1.094933E-07     8.346586E-07     1.312920E+02
#     55     Cs     9.990507E-09     7.709272E-08     1.329054E+02
#     56     Ba     9.990507E-08     7.965774E-07     1.373275E+02
#     57     La     1.094933E-08     8.830597E-08     1.389055E+02
#     58     Ce     2.814411E-08     2.289570E-07     1.401146E+02
#     59     Pr     3.796536E-09     3.106028E-08     1.409077E+02
#     60     Nd     2.341464E-08     1.960919E-07     1.442411E+02
#     61     Pm     0.000000E+00     0.000000E+00     1.449128E+02
#     62     Sm     7.576830E-09     6.614742E-08     1.503635E+02
#     63     Eu     2.395452E-09     2.113547E-08     1.519642E+02
#     64     Gd     9.758600E-09     8.909990E-08     1.572558E+02
#     65     Tb     5.881492E-10     5.427051E-09     1.589254E+02
#     66     Dy     1.022322E-08     9.645489E-08     1.625001E+02
#     67     Ho     1.347372E-09     1.290242E-08     1.649304E+02
#     68     Er     6.302133E-09     6.120210E-08     1.672614E+02
#     69     Tm     7.404360E-10     7.262536E-09     1.689342E+02
#     70     Yb     8.904049E-09     8.945589E-08     1.730367E+02
#     71     Lu     8.503301E-10     8.638257E-09     1.749667E+02
#     72     Hf     5.616782E-09     5.820847E-08     1.784907E+02
#     73     Ta     5.488928E-10     5.766657E-09     1.809479E+02
#     74     W      9.540860E-09     1.018390E-07     1.838415E+02
#     75     Re     1.410872E-09     1.525392E-08     1.862134E+02
#     76     Os     2.086832E-08     2.304976E-07     1.902374E+02
#     77     Ir     1.658011E-08     1.850377E-07     1.922161E+02
#     78     Pt     4.671835E-08     5.291572E-07     1.950806E+02
#     79     Au     7.576830E-09     8.664890E-08     1.969666E+02
#     80     Hg     9.990507E-09     1.163576E-07     2.005969E+02
#     81     Tl     5.881492E-09     6.979384E-08     2.043838E+02
#     82     Pb     6.599143E-08     7.939617E-07     2.072187E+02
#     83     Bi     3.796536E-09     4.606554E-08     2.089804E+02
#     84     Po     0.000000E+00     0.000000E+00     2.089824E+02
#     85     At     0.000000E+00     0.000000E+00     2.099870E+02
#     86     Rn     0.000000E+00     0.000000E+00     2.220176E+02
#     87     Fr     0.000000E+00     0.000000E+00     2.230198E+02
#     88     Ra     0.000000E+00     0.000000E+00     2.260254E+02
#     89     Ac     0.000000E+00     0.000000E+00     2.270278E+02
#     90     Th     9.105159E-10     1.226676E-08     2.320381E+02
#     91     Pa     0.000000E+00     0.000000E+00     2.310359E+02
#     92     U      2.341464E-10     3.235939E-09     2.380289E+02
#     93     Np     0.000000E+00     0.000000E+00     2.370482E+02
#     94     Pu     0.000000E+00     0.000000E+00     2.440642E+02
#     95     Am     0.000000E+00     0.000000E+00     2.430614E+02
#     96     Cm     0.000000E+00     0.000000E+00     2.470704E+02
#     97     Bk     0.000000E+00     0.000000E+00     2.470703E+02
#     98     Cf     0.000000E+00     0.000000E+00     2.510796E+02
#     99     Es     0.000000E+00     0.000000E+00     2.540881E+02
#
#
#  Abundance ratio variations of metals with respect to 
#  scaled-solar values: [X_i/Fe] (in dex)
#  Fe-group elements: V, Cr, Mn, Fe, Co, Ni, Cu, Zn
#  Reference metallicity is preserved:  Zref = Z
#  No change in any metal abundance
#
#       1    H         -----      34   [Se/Fe]=   0.000      67   [Ho/Fe]=   0.000
#       2    He        -----      35   [Br/Fe]=   0.000      68   [Er/Fe]=   0.000
#       3   [Li/Fe]=   0.000      36   [Kr/Fe]=   0.000      69   [Tm/Fe]=   0.000
#       4   [Be/Fe]=   0.000      37   [Rb/Fe]=   0.000      70   [Yb/Fe]=   0.000
#       5   [B /Fe]=   0.000      38   [Sr/Fe]=   0.000      71   [Lu/Fe]=   0.000
#       6   [C /Fe]=   0.000      39   [Y /Fe]=   0.000      72   [Hf/Fe]=   0.000
#       7   [N /Fe]=   0.000      40   [Zr/Fe]=   0.000      73   [Ta/Fe]=   0.000
#       8   [O /Fe]=   0.000      41   [Nb/Fe]=   0.000      74   [W /Fe]=   0.000
#       9   [F /Fe]=   0.000      42   [Mo/Fe]=   0.000      75   [Re/Fe]=   0.000
#      10   [Ne/Fe]=   0.000      43   [Tc/Fe]=   0.000      76   [Os/Fe]=   0.000
#      11   [Na/Fe]=   0.000      44   [Ru/Fe]=   0.000      77   [Ir/Fe]=   0.000
#      12   [Mg/Fe]=   0.000      45   [Rh/Fe]=   0.000      78   [Pt/Fe]=   0.000
#      13   [Al/Fe]=   0.000      46   [Pd/Fe]=   0.000      79   [Au/Fe]=   0.000
#      14   [Si/Fe]=   0.000      47   [Ag/Fe]=   0.000      80   [Hg/Fe]=   0.000
#      15   [P /Fe]=   0.000      48   [Cd/Fe]=   0.000      81   [Tl/Fe]=   0.000
#      16   [S /Fe]=   0.000      49   [In/Fe]=   0.000      82   [Pb/Fe]=   0.000
#      17   [Cl/Fe]=   0.000      50   [Sn/Fe]=   0.000      83   [Bi/Fe]=   0.000
#      18   [Ar/Fe]=   0.000      51   [Sb/Fe]=   0.000      84   [Po/Fe]=   0.000
#      19   [K /Fe]=   0.000      52   [Te/Fe]=   0.000      85   [At/Fe]=   0.000
#      20   [Ca/Fe]=   0.000      53   [I /Fe]=   0.000      86   [Rn/Fe]=   0.000
#      21   [Sc/Fe]=   0.000      54   [Xe/Fe]=   0.000      87   [Fr/Fe]=   0.000
#      22   [Ti/Fe]=   0.000      55   [Cs/Fe]=   0.000      88   [Ra/Fe]=   0.000
#      23    V         -----      56   [Ba/Fe]=   0.000      89   [Ac/Fe]=   0.000
#      24    Cr        -----      57   [La/Fe]=   0.000      90   [Th/Fe]=   0.000
#      25    Mn        -----      58   [Ce/Fe]=   0.000      91   [Pa/Fe]=   0.000
#      26    Fe        -----      59   [Pr/Fe]=   0.000      92   [U /Fe]=   0.000
#      27    Co        -----      60   [Nd/Fe]=   0.000      93   [Np/Fe]=   0.000
#      28    Ni        -----      61   [Pm/Fe]=   0.000      94   [Pu/Fe]=   0.000
#      29    Cu        -----      62   [Sm/Fe]=   0.000      95   [Am/Fe]=   0.000
#      30    Zn        -----      63   [Eu/Fe]=   0.000      96   [Cm/Fe]=   0.000
#      31   [Ga/Fe]=   0.000      64   [Gd/Fe]=   0.000      97   [Bk/Fe]=   0.000
#      32   [Ge/Fe]=   0.000      65   [Tb/Fe]=   0.000      98   [Cf/Fe]=   0.000
#      33   [As/Fe]=   0.000      66   [Dy/Fe]=   0.000      99   [Es/Fe]=   0.000
#
#
#  Individual variations of metal abundances (number fraction): log10(variation factor) (in dex)
#  Reference metallicity is in general NOT preserved Zref != Z
#
#       1   H    -----      34   Se   0.000      67   Ho   0.000
#       2   He   -----      35   Br   0.000      68   Er   0.000
#       3   Li   0.000      36   Kr   0.000      69   Tm   0.000
#       4   Be   0.000      37   Rb   0.000      70   Yb   0.000
#       5   B    0.000      38   Sr   0.000      71   Lu   0.000
#       6   C    0.000      39   Y    0.000      72   Hf   0.000
#       7   N    0.000      40   Zr   0.000      73   Ta   0.000
#       8   O    0.000      41   Nb   0.000      74   W    0.000
#       9   F    0.000      42   Mo   0.000      75   Re   0.000
#      10   Ne   0.000      43   Tc   0.000      76   Os   0.000
#      11   Na   0.000      44   Ru   0.000      77   Ir   0.000
#      12   Mg   0.000      45   Rh   0.000      78   Pt   0.000
#      13   Al   0.000      46   Pd   0.000      79   Au   0.000
#      14   Si   0.000      47   Ag   0.000      80   Hg   0.000
#      15   P    0.000      48   Cd   0.000      81   Tl   0.000
#      16   S    0.000      49   In   0.000      82   Pb   0.000
#      17   Cl   0.000      50   Sn   0.000      83   Bi   0.000
#      18   Ar   0.000      51   Sb   0.000      84   Po   0.000
#      19   K    0.000      52   Te   0.000      85   At   0.000
#      20   Ca   0.000      53   I    0.000      86   Rn   0.000
#      21   Sc   0.000      54   Xe   0.000      87   Fr   0.000
#      22   Ti   0.000      55   Cs   0.000      88   Ra   0.000
#      23   V    0.000      56   Ba   0.000      89   Ac   0.000
#      24   Cr   0.000      57   La   0.000      90   Th   0.000
#      25   Mn   0.000      58   Ce   0.000      91   Pa   0.000
#      26   Fe   0.000      59   Pr   0.000      92   U    0.000
#      27   Co   0.000      60   Nd   0.000      93   Np   0.000
#      28   Ni   0.000      61   Pm   0.000      94   Pu   0.000
#      29   Cu   0.000      62   Sm   0.000      95   Am   0.000
#      30   Zn   0.000      63   Eu   0.000      96   Cm   0.000
#      31   Ga   0.000      64   Gd   0.000      97   Bk   0.000
#      32   Ge   0.000      65   Tb   0.000      98   Cf   0.000
#      33   As   0.000      66   Dy   0.000      99   Es   0.000
#
#
#              VARIATION GRID OF C/O - C - N ABUNDANCES (in number fraction)
#
#          FCO = log10(variation factor) of C/O ratio
#
#
#           FC = log10(variation factor) of carbon abundance
#
#
#           FN = log10(variation factor) of nitrogen abundance
#
#
#           FO = FC - FCO = log10(variation factor) of oxygen abundance 
#
#
#              TOTAL NUMBER OF TABLES:   mh x mco x mc x mn =     1
#
#
# TABLE      1     X=  0.700000     Y=  0.285000     Zref= 1.500000E-02     Z= 1.500000E-02     FCO=  0.000   FC=  0.000   FN=  0.000   FO=  0.000  C/O=   4.8978E-01
#
#     Zi   element     ni/nz             Xi/Z            ni/nH            Xi/XH             <Ai>
#
#      3     Li     9.323684E-09     3.757845E-09     1.169268E-11     8.052525E-11       6.941739
#      4     Be     1.859891E-08     9.731966E-09     2.332459E-11     2.085421E-10       9.012183
#      5     B      2.627166E-07     1.649247E-07     3.294686E-10     3.534100E-09      10.812224
#      6     C      2.451814E-01     1.709837E-01     3.074780E-04     3.663936E-03      12.011137
#      7     N      6.158679E-02     5.008508E-02     7.723498E-05     1.073252E-03      14.006763
#      8     O      5.005962E-01     4.650221E-01     6.277895E-04     9.964760E-03      15.999375
#      9     F      2.688361E-05     2.965430E-05     3.371429E-08     6.354494E-07      18.998405
#     10     Ne     8.904049E-02     1.042809E-01     1.116642E-04     2.234591E-03      20.171321
#     11     Na     1.583024E-03     2.113028E-03     1.985245E-06     4.527917E-05      22.989771
#     12     Mg     2.814411E-02     3.972350E-02     3.529507E-05     8.512179E-04      24.309551
#     13     Al     2.184679E-03     3.422452E-03     2.739770E-06     7.333825E-05      26.981541
#     14     Si     2.627166E-02     4.284049E-02     3.294686E-05     9.180106E-04      28.085611
#     15     P      2.086832E-04     3.752879E-04     2.617062E-07     8.041884E-06      30.973765
#     16     S      1.583024E-02     2.947097E-02     1.985245E-05     6.315207E-04      32.064451
#     17     Cl     2.341464E-04     4.820356E-04     2.936392E-07     1.032933E-05      35.457532
#     18     Ar     1.859891E-03     4.313819E-03     2.332459E-06     9.243899E-05      39.947662
#     19     K      9.758600E-05     2.215449E-04     1.223810E-07     4.747391E-06      39.101298
#     20     Ca     1.696632E-03     3.947852E-03     2.127718E-06     8.459683E-05      40.076544
#     21     Sc     1.094933E-06     2.857969E-06     1.373138E-09     6.124218E-08      44.955917
#     22     Ti     7.753317E-05     2.155336E-04     9.723308E-08     4.618577E-06      47.878925
#     23     V      7.404360E-06     2.189994E-05     9.285687E-09     4.692844E-07      50.941572
#     24     Cr     3.463279E-04     1.045572E-03     4.343242E-07     2.240512E-05      51.997623
#     25     Mn     1.817136E-04     5.796206E-04     2.278841E-07     1.242044E-05      54.938046
#     26     Fe     2.341464E-02     7.592291E-02     2.936392E-05     1.626920E-03      55.847311
#     27     Co     6.158679E-05     2.107320E-04     7.723498E-08     4.515686E-06      58.933189
#     28     Ni     1.316702E-03     4.487945E-03     1.651255E-06     9.617026E-05      58.705254
#     29     Cu     1.201123E-05     4.431668E-05     1.506309E-08     9.496432E-07      63.547234
#     30     Zn     2.947729E-05     1.119080E-04     3.696699E-08     2.398029E-06      65.386875
#     31     Ga     5.616782E-07     2.273583E-06     7.043914E-10     4.871963E-08      69.717234
#     32     Ge     1.903214E-06     8.025819E-06     2.386789E-09     1.719818E-07      72.630452
#     33     As     1.736151E-07     7.552272E-07     2.177279E-10     1.618344E-08      74.921600
#     34     Se     1.903214E-06     8.728593E-06     2.386789E-09     1.870413E-07      78.990277
#     35     Br     3.158548E-07     1.465389E-06     3.961084E-10     3.140119E-08      79.906523
#     36     Kr     1.511428E-06     7.353928E-06     1.895458E-09     1.575842E-07      83.800924
#     37     Rb     2.947729E-07     1.462765E-06     3.696699E-10     3.134496E-08      85.468072
#     38     Sr     6.910151E-07     3.515251E-06     8.665908E-10     7.532680E-08      87.616461
#     39     Y      1.287027E-07     6.643562E-07     1.614039E-10     1.423620E-08      88.905867
#     40     Zr     2.947729E-07     1.561272E-06     3.696699E-10     3.345582E-08      91.223746
#     41     Nb     1.947545E-08     1.050549E-07     2.442385E-11     2.251175E-09      92.906380
#     42     Mo     6.158679E-08     3.428800E-07     7.723498E-11     7.347428E-09      95.889605
#     43     Tc     0.000000E+00     0.000000E+00     0.000000E+00     0.000000E+00      96.906390
#     44     Ru     5.122566E-08     3.005927E-07     6.424126E-11     6.441272E-09     101.066641
#     45     Rh     9.758600E-09     5.830546E-08     1.223810E-11     1.249403E-09     102.905511
#     46     Pd     3.626499E-08     2.240978E-07     4.547933E-11     4.802096E-09     106.430727
#     47     Ag     6.448928E-09     4.038921E-08     8.087496E-12     8.654830E-10     107.868530
#     48     Cd     4.360011E-08     2.845931E-07     5.467818E-11     6.098425E-09     112.422659
#     49     In     3.384446E-08     2.256221E-07     4.244378E-11     4.834759E-09     114.818279
#     50     Sn     7.404360E-08     5.104404E-07     9.285687E-11     1.093801E-08     118.733825
#     51     Sb     7.404360E-09     5.234457E-08     9.285687E-12     1.121669E-09     121.758986
#     52     Te     1.287027E-07     9.537093E-07     1.614039E-10     2.043663E-08     127.627845
#     53     I      2.395452E-08     1.765011E-07     3.004098E-11     3.782167E-09     126.904474
#     54     Xe     1.094933E-07     8.346586E-07     1.373138E-10     1.788554E-08     131.292004
#     55     Cs     9.990507E-09     7.709272E-08     1.252893E-11     1.651987E-09     132.905440
#     56     Ba     9.990507E-08     7.965774E-07     1.252893E-10     1.706952E-08     137.327464
#     57     La     1.094933E-08     8.830597E-08     1.373138E-11     1.892271E-09     138.905511
#     58     Ce     2.814411E-08     2.289570E-07     3.529507E-11     4.906222E-09     140.114588
#     59     Pr     3.796536E-09     3.106028E-08     4.761174E-12     6.655773E-10     140.907700
#     60     Nd     2.341464E-08     1.960919E-07     2.936392E-11     4.201968E-09     144.241079
#     61     Pm     0.000000E+00     0.000000E+00     0.000000E+00     0.000000E+00     144.912790
#     62     Sm     7.576830E-09     6.614742E-08     9.501979E-12     1.417445E-09     150.363469
#     63     Eu     2.395452E-09     2.113547E-08     3.004098E-12     4.529029E-10     151.964200
#     64     Gd     9.758600E-09     8.909990E-08     1.223810E-11     1.909284E-09     157.255784
#     65     Tb     5.881492E-10     5.427051E-09     7.375884E-13     1.162939E-10     158.925390
#     66     Dy     1.022322E-08     9.645489E-08     1.282077E-11     2.066891E-09     162.500111
#     67     Ho     1.347372E-09     1.290242E-08     1.689717E-12     2.764804E-10     164.930360
#     68     Er     6.302133E-09     6.120210E-08     7.903402E-12     1.311474E-09     167.261394
#     69     Tm     7.404360E-10     7.262536E-09     9.285687E-13     1.556258E-10     168.934240
#     70     Yb     8.904049E-09     8.945589E-08     1.116642E-11     1.916912E-09     173.036747
#     71     Lu     8.503301E-10     8.638257E-09     1.066385E-12     1.851055E-10     174.966749
#     72     Hf     5.616782E-09     5.820847E-08     7.043914E-12     1.247324E-09     178.490703
#     73     Ta     5.488928E-10     5.766657E-09     6.883575E-13     1.235712E-10     180.947907
#     74     W      9.540860E-09     1.018390E-07     1.196504E-11     2.182265E-09     183.841519
#     75     Re     1.410872E-09     1.525392E-08     1.769351E-12     3.268697E-10     186.213359
#     76     Os     2.086832E-08     2.304976E-07     2.617062E-11     4.939234E-09     190.237368
#     77     Ir     1.658011E-08     1.850377E-07     2.079285E-11     3.965095E-09     192.216095
#     78     Pt     4.671835E-08     5.291572E-07     5.858873E-11     1.133908E-08     195.080617
#     79     Au     7.576830E-09     8.664890E-08     9.501979E-12     1.856762E-09     196.966550
#     80     Hg     9.990507E-09     1.163576E-07     1.252893E-11     2.493377E-09     200.596900
#     81     Tl     5.881492E-09     6.979384E-08     7.375884E-12     1.495582E-09     204.383823
#     82     Pb     6.599143E-08     7.939617E-07     8.275878E-11     1.701347E-08     207.218721
#     83     Bi     3.796536E-09     4.606554E-08     4.761174E-12     9.871187E-10     208.980400
#     84     Po     0.000000E+00     0.000000E+00     0.000000E+00     0.000000E+00     208.982440
#     85     At     0.000000E+00     0.000000E+00     0.000000E+00     0.000000E+00     209.987040
#     86     Rn     0.000000E+00     0.000000E+00     0.000000E+00     0.000000E+00     222.017610
#     87     Fr     0.000000E+00     0.000000E+00     0.000000E+00     0.000000E+00     223.019760
#     88     Ra     0.000000E+00     0.000000E+00     0.000000E+00     0.000000E+00     226.025440
#     89     Ac     0.000000E+00     0.000000E+00     0.000000E+00     0.000000E+00     227.027770
#     90     Th     9.105159E-10     1.226676E-08     1.141863E-12     2.628591E-10     232.038080
#     91     Pa     0.000000E+00     0.000000E+00     0.000000E+00     0.000000E+00     231.035900
#     92     U      2.341464E-10     3.235939E-09     2.936392E-13     6.934155E-11     238.028942
#     93     Np     0.000000E+00     0.000000E+00     0.000000E+00     0.000000E+00     237.048190
#     94     Pu     0.000000E+00     0.000000E+00     0.000000E+00     0.000000E+00     244.064240
#     95     Am     0.000000E+00     0.000000E+00     0.000000E+00     0.000000E+00     243.061390
#     96     Cm     0.000000E+00     0.000000E+00     0.000000E+00     0.000000E+00     247.070380
#     97     Bk     0.000000E+00     0.000000E+00     0.000000E+00     0.000000E+00     247.070320
#     98     Cf     0.000000E+00     0.000000E+00     0.000000E+00     0.000000E+00     251.079610
#     99     Es     0.000000E+00     0.000000E+00     0.000000E+00     0.000000E+00     254.088050
#
#
4.500  -0.4291  -0.4272  -0.4250  -0.4225  -0.4201  -0.4173  -0.4142  -0.4107  -0.4067  -0.4024  -0.3976  -0.3922  -0.3860  -0.3790  -0.3711  -0.3620  -0.3516  -0.3397  -0.3261  -0.3114  -0.2950  -0.2768  -0.2569  -0.2353  -0.2129  -0.1890  -0.1632  -0.1352  -0.1049  -0.0736  -0.0401  -0.0035   0.0364   0.0798   0.1261   0.1758   0.2297   0.2878   0.3500   0.4161   0.4861   0.5602   0.6379   0.7192   0.8043   0.8927   0.9841   1.0780   1.1742   1.2729   1.3738   1.4764   1.5807   1.6865   1.7926   1.8994   2.0073   2.1163   2.2261   2.3341   2.4413   2.5493   2.6582   2.7676   2.8750   2.9814   3.0889   3.1970   3.3056   3.4130   3.5197   3.6264   3.7329   3.8387   3.9426   4.0440   4.1438   4.2414   4.3360   4.4277   4.5153   4.5989   4.6785   4.7534   4.8232   4.8882   4.9477   5.0021   5.0521   5.0974   5.1385
4.450  -0.4476  -0.4459  -0.4439  -0.4418  -0.4394  -0.4368  -0.4339  -0.4305  -0.4266  -0.4217  -0.4162  -0.4110  -0.4050  -0.3981  -0.3900  -0.3811  -0.3718  -0.3612  -0.3492  -0.3356  -0.3208  -0.3058  -0.2892  -0.2709  -0.2509  -0.2293  -0.2068  -0.1822  -0.1554  -0.1260  -0.0939  -0.0590  -0.0207   0.0212   0.0669   0.1168   0.1713   0.2301   0.2932   0.3605   0.4321   0.5085   0.5887   0.6726   0.7598   0.8501   0.9432   1.0389   1.1367   1.2365   1.3378   1.4393   1.5422   1.6465   1.7520   1.8581   1.9624   2.0676   2.1736   2.2804   2.3874   2.4920   2.5971   2.7028   2.8092   2.9161   3.0206   3.1258   3.2312   3.3369   3.4424   3.5457   3.6484   3.7502   3.8510   3.9500   4.0463   4.1394   4.2298   4.3172   4.4005   4.4799   4.5548   4.6249   4.6906   4.7517   4.8083   4.8605   4.9085   4.9523   4.9927
4.400  -0.4568  -0.4565  -0.4563  -0.4558  -0.4547  -0.4529  -0.4505  -0.4480  -0.4450  -0.4412  -0.4365  -0.4309  -0.4252  -0.4189  -0.4118  -0.4036  -0.3943  -0.3846  -0.3741  -0.3626  -0.3498  -0.3357  -0.3204  -0.3037  -0.2854  -0.2653  -0.2432  -0.2189  -0.1922  -0.1627  -0.1302  -0.0945  -0.0548  -0.0110   0.0369   0.0888   0.1450   0.2059   0.2714   0.3410   0.4148   0.4924   0.5736   0.6580   0.7456   0.8359   0.9286   1.0223   1.1171   1.2139   1.3121   1.4118   1.5114   1.6117   1.7132   1.8160   1.9199   2.0234   2.1271   2.2315   2.3365   2.4419   2.5463   2.6498   2.7536   2.8577   2.9619   3.0650   3.1663   3.2677   3.3687   3.4694   3.5689   3.6654   3.7603   3.8531   3.9435   4.0308   4.1141   4.1933   4.2686   4.3398   4.4066   4.4691   4.5274   4.5808   4.6306   4.6768   4.7194   4.7591   4.7959
4.350  -0.4750  -0.4735  -0.4716  -0.4694  -0.4673  -0.4647  -0.4616  -0.4578  -0.4536  -0.4493  -0.4446  -0.4392  -0.4333  -0.4268  -0.4202  -0.4129  -0.4050  -0.3964  -0.3870  -0.3766  -0.3651  -0.3524  -0.3380  -0.3220  -0.3039  -0.2838  -0.2612  -0.2360  -0.2078  -0.1763  -0.1414  -0.1028  -0.0605  -0.0145   0.0353   0.0891   0.1469   0.2086   0.2741   0.3424   0.4145   0.4901   0.5691   0.6511   0.7353   0.8222   0.9115   1.0030   1.0965   1.1915   1.2880   1.3859   1.4849   1.5850   1.6854   1.7865   1.8881   1.9900   2.0921   2.1931   2.2942   2.3956   2.4971   2.5990   2.6991   2.7993   2.8998   3.0004   3.1009   3.1996   3.2966   3.3926   3.4869   3.5791   3.6684   3.7531   3.8344   3.9121   3.9858   4.0554   4.1207   4.1808   4.2370   4.2893   4.3379   4.3831   4.4253   4.4646   4.5008   4.5345   4.5662
4.300  -0.4840  -0.4829  -0.4814  -0.4792  -0.4769  -0.4748  -0.4725  -0.4699  -0.4670  -0.4638  -0.4602  -0.4563  -0.4521  -0.4474  -0.4423  -0.4367  -0.4303  -0.4231  -0.4149  -0.4056  -0.3949  -0.3825  -0.3685  -0.3523  -0.3339  -0.3132  -0.2899  -0.2635  -0.2340  -0.2009  -0.1649  -0.1256  -0.0825  -0.0354   0.0156   0.0697   0.1272   0.1887   0.2540   0.3230   0.3956   0.4716   0.5509   0.6331   0.7180   0.8058   0.8961   0.9881   1.0815   1.1761   1.2722   1.3693   1.4671   1.5653   1.6641   1.7630   1.8622   1.9618   2.0620   2.1627   2.2633   2.3637   2.4646   2.5659   2.6674   2.7685   2.8666   2.9642   3.0608   3.1559   3.2489   3.3371   3.4215   3.5026   3.5801   3.6537   3.7231   3.7871   3.8465   3.9020   3.9538   4.0020   4.0469   4.0888   4.1275   4.1632   4.1968   4.2284   4.2584   4.2869   4.3143
4.250  -0.4905  -0.4893  -0.4878  -0.4862  -0.4843  -0.4821  -0.4796  -0.4768  -0.4738  -0.4705  -0.4668  -0.4627  -0.4584  -0.4537  -0.4483  -0.4423  -0.4353  -0.4277  -0.4189  -0.4086  -0.3966  -0.3829  -0.3682  -0.3513  -0.3321  -0.3100  -0.2851  -0.2584  -0.2285  -0.1951  -0.1582  -0.1177  -0.0738  -0.0262   0.0254   0.0809   0.1401   0.2039   0.2714   0.3423   0.4165   0.4938   0.5748   0.6582   0.7436   0.8307   0.9194   1.0104   1.1024   1.1954   1.2893   1.3842   1.4803   1.5772   1.6752   1.7741   1.8737   1.9735   2.0739   2.1746   2.2754   2.3761   2.4748   2.5721   2.6684   2.7631   2.8558   2.9455   3.0299   3.1112   3.1890   3.2631   3.3334   3.3991   3.4592   3.5155   3.5683   3.6177   3.6638   3.7069   3.7471   3.7837   3.8181   3.8505   3.8811   3.9103   3.9382   3.9650   3.9909   4.0156   4.0395
4.200  -0.4924  -0.4906  -0.4885  -0.4863  -0.4839  -0.4812  -0.4780  -0.4745  -0.4713  -0.4679  -0.4642  -0.4601  -0.4554  -0.4508  -0.4460  -0.4404  -0.4338  -0.4260  -0.4176  -0.4082  -0.3970  -0.3839  -0.3686  -0.3513  -0.3316  -0.3091  -0.2834  -0.2543  -0.2217  -0.1854  -0.1454  -0.1017  -0.0542  -0.0024   0.0533   0.1127   0.1756   0.2418   0.3115   0.3848   0.4606   0.5389   0.6195   0.7027   0.7887   0.8764   0.9660   1.0572   1.1500   1.2447   1.3404   1.4371   1.5346   1.6326   1.7305   1.8284   1.9265   2.0244   2.1217   2.2158   2.3091   2.4010   2.4911   2.5790   2.6623   2.7423   2.8190   2.8923   2.9619   3.0276   3.0881   3.1440   3.1963   3.2452   3.2907   3.3333   3.3730   3.4098   3.4433   3.4748   3.5047   3.5331   3.5603   3.5863   3.6115   3.6361   3.6592   3.6816   3.7041   3.7264   3.7488
4.150  -0.4865  -0.4849  -0.4832  -0.4813  -0.4793  -0.4776  -0.4757  -0.4736  -0.4713  -0.4688  -0.4665  -0.4639  -0.4608  -0.4572  -0.4530  -0.4483  -0.4424  -0.4354  -0.4270  -0.4170  -0.4053  -0.3915  -0.3754  -0.3566  -0.3350  -0.3103  -0.2823  -0.2511  -0.2161  -0.1775  -0.1345  -0.0877  -0.0369   0.0177   0.0764   0.1395   0.2066   0.2773   0.3518   0.4296   0.5109   0.5953   0.6823   0.7713   0.8623   0.9549   1.0487   1.1434   1.2390   1.3351   1.4305   1.5256   1.6204   1.7146   1.8080   1.8994   1.9885   2.0758   2.1612   2.2442   2.3245   2.4000   2.4724   2.5413   2.6064   2.6678   2.7247   2.7775   2.8266   2.8723   2.9149   2.9546   2.9916   3.0263   3.0586   3.0881   3.1161   3.1427   3.1681   3.1927   3.2164   3.2397   3.2625   3.2845   3.3060   3.3275   3.3492   3.3711   3.3933   3.4159   3.4391
4.100  -0.4998  -0.4994  -0.4990  -0.4985  -0.4979  -0.4972  -0.4964  -0.4956  -0.4945  -0.4931  -0.4915  -0.4895  -0.4871  -0.4842  -0.4806  -0.4761  -0.4710  -0.4644  -0.4566  -0.4471  -0.4357  -0.4220  -0.4058  -0.3867  -0.3644  -0.3386  -0.3090  -0.2751  -0.2369  -0.1944  -0.1471  -0.0948  -0.0375   0.0244   0.0908   0.1615   0.2362   0.3146   0.3962   0.4806   0.5675   0.6560   0.7463   0.8378   0.9301   1.0231   1.1162   1.2084   1.3004   1.3914   1.4816   1.5705   1.6563   1.7400   1.8212   1.8992   1.9740   2.0451   2.1119   2.1744   2.2334   2.2885   2.3399   2.3877   2.4316   2.4726   2.5107   2.5462   2.5796   2.6108   2.6403   2.6672   2.6935   2.7184   2.7425   2.7658   2.7885   2.8108   2.8329   2.8549   2.8768   2.8984   2.9198   2.9415   2.9637   2.9864   3.0096   3.0335   3.0581   3.0836   3.1097
4.050  -0.5010  -0.5010  -0.5011  -0.5012  -0.5013  -0.5015  -0.5017  -0.5019  -0.5021  -0.5020  -0.5017  -0.5010  -0.4998  -0.4978  -0.4948  -0.4907  -0.4851  -0.4778  -0.4689  -0.4574  -0.4433  -0.4264  -0.4062  -0.3824  -0.3549  -0.3233  -0.2875  -0.2474  -0.2028  -0.1536  -0.1001  -0.0416   0.0214   0.0886   0.1598   0.2347   0.3130   0.3942   0.4771   0.5614   0.6473   0.7341   0.8214   0.9078   0.9935   1.0781   1.1614   1.2428   1.3217   1.3974   1.4700   1.5390   1.6047   1.6666   1.7245   1.7787   1.8291   1.8761   1.9197   1.9598   1.9973   2.0323   2.0648   2.0952   2.1233   2.1504   2.1760   2.2004   2.2239   2.2467   2.2690   2.2901   2.3115   2.3328   2.3541   2.3758   2.3975   2.4196   2.4421   2.4635   2.4862   2.5095   2.5335   2.5581   2.5836   2.6098   2.6367   2.6646   2.6933   2.7226   2.7511
4.000  -0.5267  -0.5285  -0.5302  -0.5316  -0.5327  -0.5334  -0.5337  -0.5335  -0.5327  -0.5313  -0.5291  -0.5262  -0.5223  -0.5175  -0.5114  -0.5040  -0.4950  -0.4842  -0.4713  -0.4566  -0.4388  -0.4182  -0.3944  -0.3673  -0.3365  -0.3022  -0.2640  -0.2218  -0.1754  -0.1250  -0.0711  -0.0130   0.0487   0.1143   0.1833   0.2542   0.3273   0.4020   0.4776   0.5534   0.6284   0.7020   0.7740   0.8437   0.9107   0.9743   1.0349   1.0919   1.1454   1.1952   1.2417   1.2847   1.3247   1.3620   1.3965   1.4284   1.4584   1.4866   1.5131   1.5385   1.5621   1.5851   1.6074   1.6291   1.6501   1.6710   1.6910   1.7115   1.7319   1.7525   1.7733   1.7946   1.8154   1.8375   1.8600   1.8831   1.9068   1.9313   1.9565   1.9827   2.0086   2.0363   2.0650   2.0947   2.1254   2.1570   2.1896   2.2231   2.2552   2.2900   2.3255
3.950  -0.5424  -0.5417  -0.5408  -0.5396  -0.5381  -0.5362  -0.5340  -0.5314  -0.5283  -0.5247  -0.5203  -0.5151  -0.5090  -0.5019  -0.4934  -0.4835  -0.4723  -0.4594  -0.4445  -0.4274  -0.4079  -0.3868  -0.3626  -0.3354  -0.3054  -0.2721  -0.2363  -0.1979  -0.1565  -0.1121  -0.0652  -0.0163   0.0343   0.0864   0.1392   0.1926   0.2457   0.2977   0.3483   0.3970   0.4435   0.4876   0.5291   0.5682   0.6047   0.6389   0.6709   0.7006   0.7288   0.7552   0.7801   0.8035   0.8263   0.8482   0.8695   0.8900   0.9102   0.9301   0.9500   0.9697   0.9895   1.0098   1.0303   1.0512   1.0720   1.0938   1.1161   1.1391   1.1627   1.1871   1.2118   1.2378   1.2645   1.2922   1.3205   1.3497   1.3791   1.4100   1.4415   1.4742   1.5080   1.5428   1.5786   1.6142   1.6518   1.6902   1.7297   1.7702   1.8115   1.8537   1.8951
3.900  -0.5407  -0.5392  -0.5376  -0.5359  -0.5339  -0.5317  -0.5291  -0.5261  -0.5229  -0.5192  -0.5148  -0.5096  -0.5037  -0.4972  -0.4896  -0.4810  -0.4711  -0.4599  -0.4481  -0.4349  -0.4203  -0.4044  -0.3872  -0.3697  -0.3507  -0.3307  -0.3102  -0.2891  -0.2678  -0.2467  -0.2258  -0.2054  -0.1853  -0.1660  -0.1474  -0.1293  -0.1118  -0.0949  -0.0787  -0.0628  -0.0473  -0.0322  -0.0171  -0.0021   0.0129   0.0280   0.0431   0.0586   0.0743   0.0904   0.1069   0.1241   0.1419   0.1603   0.1795   0.1994   0.2201   0.2415   0.2638   0.2871   0.3112   0.3356   0.3617   0.3886   0.4163   0.4450   0.4743   0.5046   0.5356   0.5675   0.5998   0.6331   0.6675   0.7027   0.7386   0.7750   0.8124   0.8504   0.8891   0.9285   0.9686   1.0093   1.0517   1.0949   1.1389   1.1838   1.2295   1.2755   1.3229   1.3710   1.4201
3.850  -0.5400  -0.5389  -0.5378  -0.5367  -0.5357  -0.5348  -0.5339  -0.5330  -0.5319  -0.5311  -0.5307  -0.5304  -0.5302  -0.5304  -0.5310  -0.5324  -0.5344  -0.5372  -0.5410  -0.5458  -0.5519  -0.5591  -0.5675  -0.5770  -0.5874  -0.5987  -0.6106  -0.6234  -0.6360  -0.6489  -0.6616  -0.6741  -0.6864  -0.6979  -0.7085  -0.7181  -0.7267  -0.7339  -0.7397  -0.7439  -0.7463  -0.7469  -0.7455  -0.7422  -0.7371  -0.7297  -0.7202  -0.7086  -0.6950  -0.6796  -0.6621  -0.6427  -0.6217  -0.5987  -0.5742  -0.5483  -0.5209  -0.4922  -0.4623  -0.4312  -0.3990  -0.3658  -0.3317  -0.2967  -0.2606  -0.2237  -0.1862  -0.1479  -0.1089  -0.0697  -0.0294   0.0114   0.0527   0.0945   0.1367   0.1804   0.2247   0.2698   0.3152   0.3614   0.4082   0.4556   0.5036   0.5521   0.6023   0.6533   0.7052   0.7579   0.8110   0.8657   0.9213
3.800  -0.5641  -0.5691  -0.5752  -0.5824  -0.5911  -0.6012  -0.6131  -0.6267  -0.6421  -0.6594  -0.6786  -0.6995  -0.7222  -0.7466  -0.7725  -0.7998  -0.8284  -0.8581  -0.8889  -0.9205  -0.9528  -0.9857  -1.0191  -1.0528  -1.0866  -1.1204  -1.1541  -1.1876  -1.2205  -1.2529  -1.2844  -1.3151  -1.3445  -1.3725  -1.3988  -1.4233  -1.4457  -1.4656  -1.4828  -1.4974  -1.5088  -1.5169  -1.5217  -1.5229  -1.5206  -1.5151  -1.5057  -1.4930  -1.4770  -1.4578  -1.4358  -1.4112  -1.3841  -1.3548  -1.3235  -1.2903  -1.2555  -1.2195  -1.1820  -1.1434  -1.1038  -1.0633  -1.0218  -0.9800  -0.9371  -0.8935  -0.8495  -0.8047  -0.7590  -0.7126  -0.6656  -0.6181  -0.5700  -0.5213  -0.4720  -0.4221  -0.3714  -0.3198  -0.2668  -0.2130  -0.1583  -0.1025  -0.0458   0.0120   0.0710   0.1311   0.1921   0.2549   0.3190   0.3844   0.4511
3.750  -0.7621  -0.7909  -0.8214  -0.8536  -0.8873  -0.9224  -0.9588  -0.9963  -1.0348  -1.0742  -1.1143  -1.1552  -1.1965  -1.2384  -1.2806  -1.3232  -1.3661  -1.4091  -1.4522  -1.4954  -1.5385  -1.5815  -1.6244  -1.6669  -1.7092  -1.7511  -1.7927  -1.8336  -1.8739  -1.9133  -1.9518  -1.9891  -2.0250  -2.0593  -2.0919  -2.1225  -2.1506  -2.1760  -2.1984  -2.2175  -2.2328  -2.2443  -2.2517  -2.2547  -2.2536  -2.2482  -2.2386  -2.2248  -2.2071  -2.1858  -2.1611  -2.1333  -2.1025  -2.0693  -2.0341  -1.9966  -1.9574  -1.9165  -1.8742  -1.8305  -1.7858  -1.7398  -1.6928  -1.6446  -1.5953  -1.5451  -1.4939  -1.4417  -1.3885  -1.3341  -1.2786  -1.2218  -1.1641  -1.1051  -1.0448  -0.9830  -0.9197  -0.8548  -0.7883  -0.7201  -0.6500  -0.5783  -0.5050  -0.4302  -0.3541  -0.2769  -0.1989  -0.1204  -0.0414   0.0378   0.1170
3.700  -1.3116  -1.3560  -1.4007  -1.4458  -1.4911  -1.5367  -1.5823  -1.6282  -1.6741  -1.7200  -1.7660  -1.8119  -1.8578  -1.9036  -1.9493  -1.9948  -2.0402  -2.0853  -2.1301  -2.1746  -2.2187  -2.2627  -2.3062  -2.3494  -2.3920  -2.4340  -2.4754  -2.5160  -2.5558  -2.5947  -2.6325  -2.6694  -2.7050  -2.7390  -2.7712  -2.8015  -2.8294  -2.8548  -2.8774  -2.8968  -2.9128  -2.9254  -2.9340  -2.9384  -2.9386  -2.9343  -2.9257  -2.9129  -2.8959  -2.8750  -2.8504  -2.8221  -2.7904  -2.7554  -2.7173  -2.6763  -2.6326  -2.5864  -2.5377  -2.4864  -2.4328  -2.3769  -2.3186  -2.2580  -2.1950  -2.1297  -2.0621  -1.9919  -1.9194  -1.8446  -1.7677  -1.6889  -1.6083  -1.5262  -1.4429  -1.3586  -1.2738  -1.1884  -1.1030  -1.0185  -0.9344  -0.8510  -0.7684  -0.6866  -0.6059  -0.5269  -0.4490  -0.3723  -0.2970  -0.2229  -0.1503
3.690  -1.4536  -1.4992  -1.5451  -1.5912  -1.6375  -1.6838  -1.7302  -1.7766  -1.8230  -1.8694  -1.9157  -1.9619  -2.0080  -2.0539  -2.0997  -2.1453  -2.1906  -2.2357  -2.2805  -2.3249  -2.3690  -2.4127  -2.4559  -2.4986  -2.5407  -2.5824  -2.6234  -2.6636  -2.7029  -2.7413  -2.7786  -2.8147  -2.8494  -2.8824  -2.9139  -2.9435  -2.9708  -2.9956  -3.0175  -3.0364  -3.0518  -3.0636  -3.0716  -3.0754  -3.0753  -3.0708  -3.0620  -3.0490  -3.0317  -3.0104  -2.9850  -2.9558  -2.9230  -2.8864  -2.8466  -2.8034  -2.7572  -2.7081  -2.6559  -2.6010  -2.5433  -2.4828  -2.4196  -2.3537  -2.2852  -2.2140  -2.1403  -2.0642  -1.9860  -1.9057  -1.8239  -1.7407  -1.6565  -1.5716  -1.4861  -1.4006  -1.3152  -1.2302  -1.1457  -1.0620  -0.9796  -0.8981  -0.8177  -0.7385  -0.6605  -0.5838  -0.5086  -0.4347  -0.3622  -0.2911  -0.2214
3.680  -1.5999  -1.6463  -1.6929  -1.7395  -1.7862  -1.8329  -1.8795  -1.9261  -1.9726  -2.0190  -2.0653  -2.1114  -2.1574  -2.2031  -2.2485  -2.2937  -2.3386  -2.3832  -2.4274  -2.4713  -2.5148  -2.5578  -2.6003  -2.6423  -2.6837  -2.7244  -2.7644  -2.8035  -2.8420  -2.8794  -2.9158  -2.9509  -2.9847  -3.0168  -3.0472  -3.0756  -3.1018  -3.1255  -3.1466  -3.1648  -3.1796  -3.1909  -3.1983  -3.2018  -3.2011  -3.1962  -3.1870  -3.1734  -3.1555  -3.1334  -3.1071  -3.0768  -3.0426  -3.0045  -2.9627  -2.9171  -2.8679  -2.8152  -2.7593  -2.7001  -2.6377  -2.5722  -2.5036  -2.4320  -2.3577  -2.2809  -2.2018  -2.1208  -2.0380  -1.9536  -1.8684  -1.7825  -1.6963  -1.6102  -1.5243  -1.4389  -1.3542  -1.2704  -1.1874  -1.1055  -1.0248  -0.9454  -0.8673  -0.7904  -0.7148  -0.6405  -0.5677  -0.4962  -0.4262  -0.3575  -0.2902
3.670  -1.7509  -1.7977  -1.8446  -1.8915  -1.9383  -1.9850  -2.0317  -2.0782  -2.1246  -2.1707  -2.2167  -2.2624  -2.3080  -2.3532  -2.3982  -2.4428  -2.4870  -2.5309  -2.5744  -2.6174  -2.6599  -2.7019  -2.7435  -2.7845  -2.8249  -2.8646  -2.9036  -2.9417  -2.9789  -3.0152  -3.0503  -3.0842  -3.1169  -3.1481  -3.1775  -3.2050  -3.2303  -3.2531  -3.2733  -3.2904  -3.3043  -3.3148  -3.3215  -3.3243  -3.3229  -3.3172  -3.3072  -3.2927  -3.2738  -3.2504  -3.2225  -3.1903  -3.1537  -3.1129  -3.0680  -3.0189  -2.9658  -2.9087  -2.8478  -2.7833  -2.7154  -2.6443  -2.5701  -2.4932  -2.4137  -2.3321  -2.2488  -2.1643  -2.0787  -1.9924  -1.9059  -1.8195  -1.7334  -1.6479  -1.5631  -1.4792  -1.3963  -1.3145  -1.2338  -1.1543  -1.0760  -0.9990  -0.9234  -0.8491  -0.7761  -0.7045  -0.6341  -0.5651  -0.4975  -0.4311  -0.3661
3.660  -1.9048  -1.9517  -1.9985  -2.0453  -2.0919  -2.1384  -2.1847  -2.2308  -2.2767  -2.3224  -2.3678  -2.4129  -2.4577  -2.5021  -2.5462  -2.5899  -2.6333  -2.6763  -2.7188  -2.7608  -2.8024  -2.8433  -2.8837  -2.9234  -2.9624  -3.0008  -3.0386  -3.0756  -3.1116  -3.1467  -3.1806  -3.2132  -3.2445  -3.2743  -3.3022  -3.3286  -3.3527  -3.3745  -3.3936  -3.4097  -3.4226  -3.4319  -3.4375  -3.4392  -3.4366  -3.4298  -3.4183  -3.4023  -3.3816  -3.3561  -3.3259  -3.2909  -3.2511  -3.2065  -3.1574  -3.1038  -3.0458  -2.9836  -2.9174  -2.8473  -2.7739  -2.6975  -2.6185  -2.5372  -2.4540  -2.3694  -2.2839  -2.1977  -2.1112  -2.0247  -1.9386  -1.8530  -1.7683  -1.6845  -1.6017  -1.5200  -1.4396  -1.3603  -1.2823  -1.2054  -1.1297  -1.0552  -0.9823  -0.9108  -0.8405  -0.7715  -0.7037  -0.6371  -0.5717  -0.5076  -0.4447
3.650  -2.0625  -2.1093  -2.1559  -2.2024  -2.2487  -2.2948  -2.3406  -2.3862  -2.4315  -2.4764  -2.5211  -2.5654  -2.6093  -2.6528  -2.6959  -2.7385  -2.7806  -2.8223  -2.8634  -2.9041  -2.9444  -2.9842  -3.0233  -3.0617  -3.0994  -3.1364  -3.1725  -3.2077  -3.2420  -3.2756  -3.3081  -3.3394  -3.3693  -3.3976  -3.4241  -3.4487  -3.4711  -3.4910  -3.5085  -3.5231  -3.5344  -3.5420  -3.5456  -3.5452  -3.5405  -3.5314  -3.5177  -3.4992  -3.4756  -3.4470  -3.4132  -3.3743  -3.3302  -3.2811  -3.2269  -3.1681  -3.1048  -3.0375  -2.9664  -2.8918  -2.8142  -2.7342  -2.6521  -2.5686  -2.4840  -2.3985  -2.3126  -2.2268  -2.1412  -2.0562  -1.9718  -1.8884  -1.8060  -1.7246  -1.6444  -1.5653  -1.4874  -1.4110  -1.3357  -1.2616  -1.1887  -1.1169  -1.0463  -0.9771  -0.9092  -0.8425  -0.7769  -0.7123  -0.6488  -0.5863  -0.5249
3.640  -2.2275  -2.2740  -2.3202  -2.3663  -2.4121  -2.4576  -2.5028  -2.5477  -2.5923  -2.6365  -2.6804  -2.7238  -2.7667  -2.8093  -2.8514  -2.8931  -2.9343  -2.9749  -3.0149  -3.0544  -3.0932  -3.1313  -3.1688  -3.2057  -3.2421  -3.2776  -3.3123  -3.3461  -3.3788  -3.4105  -3.4409  -3.4700  -3.4978  -3.5242  -3.5487  -3.5713  -3.5916  -3.6094  -3.6244  -3.6364  -3.6450  -3.6500  -3.6511  -3.6479  -3.6401  -3.6275  -3.6098  -3.5870  -3.5589  -3.5256  -3.4869  -3.4428  -3.3934  -3.3389  -3.2796  -3.2156  -3.1474  -3.0756  -3.0006  -2.9228  -2.8427  -2.7608  -2.6776  -2.5936  -2.5091  -2.4245  -2.3402  -2.2563  -2.1730  -2.0905  -2.0088  -1.9283  -1.8490  -1.7709  -1.6940  -1.6182  -1.5435  -1.4701  -1.3980  -1.3271  -1.2573  -1.1887  -1.1212  -1.0549  -0.9896  -0.9254  -0.8621  -0.7998  -0.7384  -0.6779  -0.6183
3.630  -2.3942  -2.4402  -2.4859  -2.5314  -2.5765  -2.6213  -2.6657  -2.7098  -2.7535  -2.7968  -2.8397  -2.8821  -2.9240  -2.9655  -3.0064  -3.0469  -3.0867  -3.1261  -3.1649  -3.2031  -3.2407  -3.2776  -3.3138  -3.3492  -3.3839  -3.4176  -3.4505  -3.4826  -3.5136  -3.5434  -3.5720  -3.5991  -3.6246  -3.6484  -3.6703  -3.6902  -3.7078  -3.7227  -3.7348  -3.7436  -3.7489  -3.7503  -3.7476  -3.7405  -3.7286  -3.7116  -3.6894  -3.6618  -3.6287  -3.5901  -3.5460  -3.4967  -3.4422  -3.3830  -3.3193  -3.2515  -3.1800  -3.1055  -3.0284  -2.9491  -2.8683  -2.7866  -2.7041  -2.6214  -2.5388  -2.4564  -2.3747  -2.2936  -2.2135  -2.1343  -2.0561  -1.9790  -1.9029  -1.8279  -1.7541  -1.6814  -1.6099  -1.5395  -1.4702  -1.4020  -1.3348  -1.2687  -1.2036  -1.1394  -1.0761  -1.0136  -0.9520  -0.8911  -0.8310  -0.7716  -0.7130
3.620  -2.5624  -2.6076  -2.6525  -2.6971  -2.7413  -2.7851  -2.8285  -2.8715  -2.9140  -2.9561  -2.9977  -3.0388  -3.0794  -3.1195  -3.1591  -3.1982  -3.2366  -3.2745  -3.3117  -3.3483  -3.3842  -3.4195  -3.4540  -3.4878  -3.5207  -3.5526  -3.5836  -3.6135  -3.6423  -3.6697  -3.6958  -3.7205  -3.7434  -3.7644  -3.7833  -3.7999  -3.8139  -3.8251  -3.8332  -3.8379  -3.8388  -3.8357  -3.8282  -3.8160  -3.7989  -3.7766  -3.7490  -3.7159  -3.6774  -3.6335  -3.5845  -3.5307  -3.4723  -3.4097  -3.3432  -3.2732  -3.2004  -3.1251  -3.0479  -2.9693  -2.8896  -2.8095  -2.7293  -2.6492  -2.5694  -2.4903  -2.4118  -2.3343  -2.2576  -2.1819  -2.1072  -2.0335  -1.9609  -1.8893  -1.8187  -1.7492  -1.6808  -1.6133  -1.5469  -1.4814  -1.4167  -1.3528  -1.2898  -1.2274  -1.1657  -1.1047  -1.0442  -0.9843  -0.9249  -0.8661  -0.8079
3.610  -2.7322  -2.7765  -2.8204  -2.8638  -2.9069  -2.9494  -2.9916  -3.0333  -3.0745  -3.1152  -3.1554  -3.1951  -3.2342  -3.2728  -3.3108  -3.3482  -3.3851  -3.4213  -3.4569  -3.4918  -3.5259  -3.5593  -3.5919  -3.6235  -3.6543  -3.6841  -3.7127  -3.7402  -3.7663  -3.7910  -3.8141  -3.8354  -3.8548  -3.8722  -3.8872  -3.8997  -3.9093  -3.9159  -3.9191  -3.9187  -3.9144  -3.9058  -3.8928  -3.8750  -3.8523  -3.8246  -3.7918  -3.7539  -3.7109  -3.6630  -3.6105  -3.5537  -3.4929  -3.4285  -3.3609  -3.2906  -3.2180  -3.1437  -3.0680  -2.9915  -2.9145  -2.8373  -2.7604  -2.6838  -2.6078  -2.5324  -2.4577  -2.3838  -2.3108  -2.2387  -2.1675  -2.0972  -2.0278  -1.9594  -1.8919  -1.8254  -1.7597  -1.6949  -1.6308  -1.5675  -1.5049  -1.4428  -1.3813  -1.3202  -1.2596  -1.1993  -1.1394  -1.0798  -1.0205  -0.9616  -0.9031
3.600  -2.9043  -2.9474  -2.9901  -3.0324  -3.0741  -3.1154  -3.1562  -3.1965  -3.2362  -3.2755  -3.3141  -3.3523  -3.3898  -3.4268  -3.4632  -3.4989  -3.5340  -3.5684  -3.6021  -3.6350  -3.6671  -3.6983  -3.7285  -3.7578  -3.7860  -3.8129  -3.8386  -3.8629  -3.8857  -3.9067  -3.9259  -3.9432  -3.9582  -3.9709  -3.9810  -3.9883  -3.9926  -3.9936  -3.9912  -3.9851  -3.9751  -3.9610  -3.9424  -3.9194  -3.8918  -3.8595  -3.8225  -3.7809  -3.7347  -3.6843  -3.6298  -3.5716  -3.5100  -3.4456  -3.3786  -3.3095  -3.2389  -3.1671  -3.0945  -3.0216  -2.9485  -2.8755  -2.8027  -2.7304  -2.6587  -2.5875  -2.5169  -2.4470  -2.3779  -2.3095  -2.2418  -2.1750  -2.1089  -2.0436  -1.9791  -1.9153  -1.8521  -1.7895  -1.7275  -1.6659  -1.6048  -1.5439  -1.4833  -1.4229  -1.3627  -1.3025  -1.2425  -1.1825  -1.1226  -1.0628  -1.0032
3.590  -3.0722  -3.1137  -3.1547  -3.1951  -3.2351  -3.2744  -3.3133  -3.3516  -3.3893  -3.4264  -3.4630  -3.4989  -3.5342  -3.5689  -3.6029  -3.6361  -3.6686  -3.7003  -3.7311  -3.7610  -3.7899  -3.8178  -3.8445  -3.8700  -3.8942  -3.9169  -3.9381  -3.9577  -3.9755  -3.9913  -4.0051  -4.0168  -4.0261  -4.0329  -4.0371  -4.0385  -4.0371  -4.0326  -4.0248  -4.0137  -3.9990  -3.9806  -3.9583  -3.9320  -3.9015  -3.8668  -3.8280  -3.7851  -3.7382  -3.6876  -3.6336  -3.5765  -3.5165  -3.4543  -3.3900  -3.3242  -3.2573  -3.1894  -3.1211  -3.0524  -2.9837  -2.9150  -2.8464  -2.7782  -2.7103  -2.6429  -2.5760  -2.5096  -2.4438  -2.3786  -2.3140  -2.2501  -2.1868  -2.1241  -2.0619  -2.0002  -1.9389  -1.8779  -1.8172  -1.7566  -1.6961  -1.6357  -1.5751  -1.5144  -1.4535  -1.3924  -1.3310  -1.2693  -1.2074  -1.1454  -1.0834
3.580  -3.2373  -3.2768  -3.3157  -3.3541  -3.3918  -3.4290  -3.4656  -3.5016  -3.5370  -3.5718  -3.6058  -3.6392  -3.6719  -3.7038  -3.7349  -3.7651  -3.7944  -3.8227  -3.8500  -3.8762  -3.9011  -3.9248  -3.9471  -3.9679  -3.9872  -4.0048  -4.0206  -4.0346  -4.0467  -4.0567  -4.0645  -4.0702  -4.0737  -4.0748  -4.0735  -4.0697  -4.0633  -4.0543  -4.0424  -4.0276  -4.0096  -3.9883  -3.9636  -3.9354  -3.9034  -3.8678  -3.8286  -3.7858  -3.7396  -3.6903  -3.6382  -3.5836  -3.5268  -3.4682  -3.4080  -3.3466  -3.2843  -3.2212  -3.1575  -3.0935  -3.0293  -2.9650  -2.9006  -2.8364  -2.7723  -2.7085  -2.6450  -2.5819  -2.5193  -2.4570  -2.3952  -2.3338  -2.2728  -2.2121  -2.1517  -2.0915  -2.0314  -1.9713  -1.9110  -1.8506  -1.7899  -1.7288  -1.6671  -1.6050  -1.5422  -1.4787  -1.4145  -1.3498  -1.2847  -1.2193  -1.1539
3.570  -3.3976  -3.4348  -3.4713  -3.5073  -3.5426  -3.5773  -3.6114  -3.6447  -3.6774  -3.7094  -3.7405  -3.7709  -3.8003  -3.8289  -3.8564  -3.8829  -3.9083  -3.9324  -3.9553  -3.9768  -3.9969  -4.0155  -4.0325  -4.0478  -4.0614  -4.0732  -4.0831  -4.0912  -4.0974  -4.1016  -4.1039  -4.1042  -4.1026  -4.0990  -4.0933  -4.0856  -4.0757  -4.0635  -4.0489  -4.0317  -4.0118  -3.9890  -3.9632  -3.9342  -3.9021  -3.8669  -3.8286  -3.7873  -3.7433  -3.6968  -3.6481  -3.5974  -3.5449  -3.4910  -3.4357  -3.3794  -3.3221  -3.2640  -3.2052  -3.1459  -3.0861  -3.0259  -2.9656  -2.9051  -2.8446  -2.7842  -2.7239  -2.6637  -2.6038  -2.5441  -2.4845  -2.4251  -2.3658  -2.3064  -2.2471  -2.1875  -2.1276  -2.0673  -2.0065  -1.9450  -1.8827  -1.8195  -1.7553  -1.6900  -1.6236  -1.5562  -1.4879  -1.4188  -1.3494  -1.2800  -1.2110
3.560  -3.5512  -3.5857  -3.6196  -3.6528  -3.6853  -3.7172  -3.7483  -3.7786  -3.8080  -3.8366  -3.8642  -3.8908  -3.9163  -3.9407  -3.9639  -3.9858  -4.0063  -4.0254  -4.0431  -4.0591  -4.0736  -4.0865  -4.0976  -4.1071  -4.1148  -4.1209  -4.1252  -4.1279  -4.1289  -4.1284  -4.1262  -4.1224  -4.1171  -4.1102  -4.1016  -4.0912  -4.0791  -4.0650  -4.0489  -4.0306  -4.0099  -3.9868  -3.9611  -3.9328  -3.9019  -3.8684  -3.8325  -3.7942  -3.7537  -3.7113  -3.6671  -3.6212  -3.5739  -3.5251  -3.4752  -3.4240  -3.3718  -3.3186  -3.2645  -3.2095  -3.1539  -3.0977  -3.0411  -2.9841  -2.9268  -2.8694  -2.8118  -2.7541  -2.6964  -2.6385  -2.5806  -2.5223  -2.4638  -2.4049  -2.3455  -2.2854  -2.2245  -2.1627  -2.0997  -2.0355  -1.9698  -1.9026  -1.8338  -1.7636  -1.6919  -1.6191  -1.5455  -1.4715  -1.3976  -1.3244  -1.2524
3.550  -3.6958  -3.7274  -3.7582  -3.7883  -3.8176  -3.8461  -3.8736  -3.9002  -3.9257  -3.9501  -3.9734  -3.9954  -4.0161  -4.0355  -4.0535  -4.0700  -4.0850  -4.0984  -4.1103  -4.1206  -4.1293  -4.1365  -4.1421  -4.1461  -4.1488  -4.1500  -4.1498  -4.1483  -4.1455  -4.1415  -4.1363  -4.1298  -4.1221  -4.1131  -4.1028  -4.0910  -4.0778  -4.0630  -4.0465  -4.0282  -4.0080  -3.9858  -3.9616  -3.9354  -3.9071  -3.8768  -3.8445  -3.8104  -3.7745  -3.7370  -3.6979  -3.6573  -3.6152  -3.5717  -3.5269  -3.4808  -3.4334  -3.3847  -3.3350  -3.2841  -3.2324  -3.1798  -3.1264  -3.0725  -3.0180  -2.9630  -2.9076  -2.8517  -2.7954  -2.7386  -2.6812  -2.6232  -2.5643  -2.5044  -2.4435  -2.3812  -2.3175  -2.2520  -2.1847  -2.1155  -2.0442  -1.9710  -1.8959  -1.8192  -1.7412  -1.6625  -1.5836  -1.5051  -1.4276  -1.3518  -1.2782
3.540  -3.8292  -3.8574  -3.8847  -3.9111  -3.9365  -3.9608  -3.9840  -4.0060  -4.0267  -4.0462  -4.0642  -4.0809  -4.0962  -4.1099  -4.1222  -4.1330  -4.1423  -4.1502  -4.1566  -4.1616  -4.1652  -4.1675  -4.1686  -4.1685  -4.1673  -4.1650  -4.1617  -4.1574  -4.1522  -4.1460  -4.1389  -4.1308  -4.1218  -4.1119  -4.1009  -4.0888  -4.0756  -4.0612  -4.0456  -4.0287  -4.0103  -3.9906  -3.9693  -3.9464  -3.9219  -3.8958  -3.8681  -3.8388  -3.8080  -3.7755  -3.7416  -3.7061  -3.6692  -3.6307  -3.5907  -3.5491  -3.5062  -3.4617  -3.4159  -3.3688  -3.3204  -3.2710  -3.2205  -3.1690  -3.1167  -3.0634  -3.0093  -2.9543  -2.8984  -2.8414  -2.7832  -2.7237  -2.6627  -2.5999  -2.5353  -2.4685  -2.3994  -2.3278  -2.2538  -2.1774  -2.0986  -2.0179  -1.9356  -1.8521  -1.7682  -1.6843  -1.6013  -1.5198  -1.4405  -1.3642  -1.2913
3.530  -3.9487  -3.9728  -3.9958  -4.0176  -4.0382  -4.0576  -4.0756  -4.0923  -4.1076  -4.1215  -4.1340  -4.1450  -4.1547  -4.1630  -4.1699  -4.1755  -4.1798  -4.1829  -4.1848  -4.1856  -4.1854  -4.1842  -4.1821  -4.1792  -4.1754  -4.1709  -4.1657  -4.1597  -4.1531  -4.1458  -4.1378  -4.1292  -4.1200  -4.1102  -4.0997  -4.0885  -4.0767  -4.0641  -4.0507  -4.0365  -4.0213  -4.0051  -3.9877  -3.9691  -3.9491  -3.9277  -3.9049  -3.8805  -3.8545  -3.8270  -3.7979  -3.7673  -3.7350  -3.7010  -3.6654  -3.6281  -3.5891  -3.5485  -3.5062  -3.4623  -3.4169  -3.3699  -3.3216  -3.2718  -3.2206  -3.1680  -3.1140  -3.0584  -3.0012  -2.9422  -2.8812  -2.8179  -2.7522  -2.6839  -2.6127  -2.5387  -2.4617  -2.3818  -2.2993  -2.2145  -2.1277  -2.0395  -1.9506  -1.8615  -1.7730  -1.6858  -1.6009  -1.5188  -1.4403  -1.3658  -1.2959
3.520  -4.0507  -4.0698  -4.0877  -4.1042  -4.1194  -4.1333  -4.1458  -4.1570  -4.1668  -4.1753  -4.1825  -4.1885  -4.1933  -4.1969  -4.1994  -4.2009  -4.2013  -4.2009  -4.1997  -4.1977  -4.1949  -4.1914  -4.1874  -4.1827  -4.1775  -4.1717  -4.1655  -4.1589  -4.1519  -4.1445  -4.1368  -4.1288  -4.1206  -4.1122  -4.1035  -4.0946  -4.0854  -4.0758  -4.0659  -4.0553  -4.0442  -4.0322  -4.0192  -4.0051  -3.9897  -3.9729  -3.9547  -3.9349  -3.9135  -3.8905  -3.8658  -3.8395  -3.8114  -3.7816  -3.7500  -3.7165  -3.6811  -3.6437  -3.6043  -3.5630  -3.5197  -3.4744  -3.4271  -3.3778  -3.3264  -3.2728  -3.2170  -3.1587  -3.0978  -3.0340  -2.9672  -2.8972  -2.8238  -2.7470  -2.6669  -2.5835  -2.4972  -2.4082  -2.3170  -2.2242  -2.1303  -2.0361  -1.9422  -1.8496  -1.7591  -1.6713  -1.5872  -1.5073  -1.4321  -1.3619  -1.2970
3.510  -4.1318  -4.1455  -4.1579  -4.1690  -4.1788  -4.1874  -4.1948  -4.2010  -4.2061  -4.2100  -4.2129  -4.2149  -4.2159  -4.2161  -4.2154  -4.2141  -4.2120  -4.2094  -4.2061  -4.2023  -4.1981  -4.1934  -4.1883  -4.1828  -4.1771  -4.1711  -4.1650  -4.1588  -4.1525  -4.1463  -4.1401  -4.1340  -4.1281  -4.1223  -4.1166  -4.1110  -4.1054  -4.0997  -4.0938  -4.0874  -4.0805  -4.0727  -4.0641  -4.0542  -4.0431  -4.0305  -4.0165  -4.0009  -3.9836  -3.9647  -3.9441  -3.9217  -3.8975  -3.8714  -3.8433  -3.8130  -3.7805  -3.7456  -3.7083  -3.6685  -3.6261  -3.5810  -3.5331  -3.4824  -3.4285  -3.3715  -3.3110  -3.2469  -3.1791  -3.1073  -3.0316  -2.9520  -2.8686  -2.7816  -2.6914  -2.5984  -2.5029  -2.4056  -2.3071  -2.2079  -2.1090  -2.0111  -1.9150  -1.8218  -1.7321  -1.6467  -1.5663  -1.4911  -1.4215  -1.3575  -1.2992
3.500  -4.1909  -4.1995  -4.2069  -4.2132  -4.2184  -4.2226  -4.2258  -4.2281  -4.2295  -4.2301  -4.2299  -4.2291  -4.2276  -4.2256  -4.2230  -4.2199  -4.2164  -4.2124  -4.2082  -4.2036  -4.1988  -4.1938  -4.1887  -4.1835  -4.1784  -4.1734  -4.1686  -4.1640  -4.1598  -4.1559  -4.1524  -4.1494  -4.1467  -4.1445  -4.1425  -4.1408  -4.1392  -4.1375  -4.1356  -4.1333  -4.1303  -4.1265  -4.1217  -4.1158  -4.1085  -4.0998  -4.0896  -4.0778  -4.0644  -4.0492  -4.0323  -4.0135  -3.9926  -3.9695  -3.9441  -3.9162  -3.8856  -3.8521  -3.8154  -3.7755  -3.7321  -3.6850  -3.6340  -3.5789  -3.5194  -3.4554  -3.3867  -3.3133  -3.2353  -3.1529  -3.0662  -2.9758  -2.8819  -2.7850  -2.6855  -2.5840  -2.4810  -2.3771  -2.2733  -2.1702  -2.0689  -1.9702  -1.8751  -1.7844  -1.6986  -1.6184  -1.5439  -1.4756  -1.4132  -1.3566  -1.3056
3.490  -4.2302  -4.2345  -4.2378  -4.2403  -4.2419  -4.2428  -4.2429  -4.2424  -4.2413  -4.2397  -4.2375  -4.2349  -4.2318  -4.2284  -4.2246  -4.2206  -4.2163  -4.2119  -4.2073  -4.2028  -4.1983  -4.1939  -4.1897  -4.1859  -4.1824  -4.1793  -4.1767  -4.1747  -4.1734  -4.1726  -4.1725  -4.1729  -4.1739  -4.1753  -4.1771  -4.1791  -4.1811  -4.1830  -4.1846  -4.1857  -4.1861  -4.1857  -4.1844  -4.1818  -4.1779  -4.1727  -4.1658  -4.1574  -4.1472  -4.1351  -4.1211  -4.1049  -4.0863  -4.0652  -4.0414  -4.0144  -3.9841  -3.9501  -3.9121  -3.8697  -3.8227  -3.7705  -3.7131  -3.6501  -3.5814  -3.5070  -3.4273  -3.3424  -3.2529  -3.1592  -3.0618  -2.9612  -2.8578  -2.7521  -2.6448  -2.5364  -2.4277  -2.3196  -2.2131  -2.1092  -2.0088  -1.9129  -1.8220  -1.7368  -1.6578  -1.5850  -1.5187  -1.4586  -1.4044  -1.3559  -1.3125
3.480  -4.2537  -4.2548  -4.2551  -4.2549  -4.2541  -4.2527  -4.2509  -4.2486  -4.2459  -4.2429  -4.2395  -4.2359  -4.2320  -4.2281  -4.2240  -4.2198  -4.2158  -4.2118  -4.2081  -4.2046  -4.2015  -4.1988  -4.1967  -4.1952  -4.1943  -4.1941  -4.1947  -4.1960  -4.1981  -4.2008  -4.2043  -4.2083  -4.2128  -4.2176  -4.2227  -4.2280  -4.2332  -4.2382  -4.2429  -4.2471  -4.2507  -4.2534  -4.2551  -4.2556  -4.2547  -4.2524  -4.2483  -4.2425  -4.2348  -4.2249  -4.2127  -4.1979  -4.1804  -4.1598  -4.1357  -4.1077  -4.0755  -4.0384  -3.9961  -3.9479  -3.8934  -3.8323  -3.7645  -3.6901  -3.6094  -3.5228  -3.4309  -3.3344  -3.2339  -3.1300  -3.0230  -2.9135  -2.8021  -2.6894  -2.5761  -2.4633  -2.3519  -2.2430  -2.1375  -2.0365  -1.9407  -1.8507  -1.7671  -1.6901  -1.6197  -1.5560  -1.4987  -1.4475  -1.4018  -1.3612  -1.3251
3.470  -4.2660  -4.2648  -4.2633  -4.2613  -4.2589  -4.2562  -4.2531  -4.2499  -4.2464  -4.2427  -4.2390  -4.2352  -4.2315  -4.2279  -4.2245  -4.2213  -4.2185  -4.2160  -4.2141  -4.2128  -4.2121  -4.2121  -4.2129  -4.2145  -4.2169  -4.2201  -4.2242  -4.2290  -4.2345  -4.2406  -4.2473  -4.2544  -4.2620  -4.2698  -4.2779  -4.2860  -4.2940  -4.3019  -4.3094  -4.3164  -4.3227  -4.3281  -4.3323  -4.3353  -4.3368  -4.3365  -4.3344  -4.3303  -4.3238  -4.3148  -4.3030  -4.2882  -4.2698  -4.2476  -4.2210  -4.1893  -4.1520  -4.1083  -4.0576  -3.9995  -3.9337  -3.8602  -3.7795  -3.6921  -3.5988  -3.5002  -3.3972  -3.2904  -3.1802  -3.0672  -2.9520  -2.8353  -2.7178  -2.6005  -2.4844  -2.3707  -2.2604  -2.1545  -2.0540  -1.9593  -1.8712  -1.7899  -1.7157  -1.6484  -1.5879  -1.5339  -1.4860  -1.4435  -1.4060  -1.3728  -1.3434
3.460  -4.2709  -4.2684  -4.2657  -4.2627  -4.2595  -4.2562  -4.2528  -4.2493  -4.2459  -4.2426  -4.2395  -4.2365  -4.2339  -4.2317  -4.2299  -4.2287  -4.2281  -4.2281  -4.2290  -4.2306  -4.2330  -4.2363  -4.2404  -4.2454  -4.2512  -4.2577  -4.2650  -4.2729  -4.2814  -4.2904  -4.2999  -4.3098  -4.3201  -4.3306  -4.3413  -4.3520  -4.3626  -4.3729  -4.3828  -4.3921  -4.4005  -4.4078  -4.4138  -4.4184  -4.4211  -4.4219  -4.4205  -4.4166  -4.4100  -4.4002  -4.3870  -4.3699  -4.3484  -4.3218  -4.2894  -4.2504  -4.2040  -4.1496  -4.0868  -4.0154  -3.9359  -3.8488  -3.7549  -3.6552  -3.5503  -3.4412  -3.3282  -3.2122  -3.0935  -2.9731  -2.8516  -2.7301  -2.6097  -2.4915  -2.3766  -2.2662  -2.1610  -2.0619  -1.9694  -1.8840  -1.8058  -1.7350  -1.6714  -1.6146  -1.5644  -1.5201  -1.4811  -1.4469  -1.4167  -1.3902  -1.3667
3.450  -4.2717  -4.2686  -4.2655  -4.2623  -4.2592  -4.2562  -4.2533  -4.2506  -4.2482  -4.2462  -4.2445  -4.2434  -4.2428  -4.2429  -4.2437  -4.2452  -4.2476  -4.2508  -4.2548  -4.2597  -4.2655  -4.2721  -4.2794  -4.2875  -4.2962  -4.3056  -4.3157  -4.3262  -4.3373  -4.3489  -4.3610  -4.3734  -4.3861  -4.3990  -4.4120  -4.4248  -4.4375  -4.4496  -4.4612  -4.4718  -4.4814  -4.4897  -4.4964  -4.5013  -4.5041  -4.5045  -4.5022  -4.4969  -4.4881  -4.4755  -4.4584  -4.4364  -4.4085  -4.3740  -4.3320  -4.2817  -4.2226  -4.1543  -4.0770  -3.9912  -3.8978  -3.7978  -3.6919  -3.5811  -3.4660  -3.3472  -3.2255  -3.1017  -2.9766  -2.8513  -2.7268  -2.6045  -2.4853  -2.3705  -2.2610  -2.1576  -2.0609  -1.9715  -1.8895  -1.8152  -1.7485  -1.6891  -1.6366  -1.5904  -1.5501  -1.5148  -1.4841  -1.4572  -1.4336  -1.4128  -1.3944
3.440  -4.2716  -4.2688  -4.2661  -4.2637  -4.2615  -4.2597  -4.2582  -4.2572  -4.2567  -4.2568  -4.2576  -4.2590  -4.2613  -4.2643  -4.2682  -4.2730  -4.2786  -4.2850  -4.2923  -4.3003  -4.3090  -4.3184  -4.3285  -4.3392  -4.3505  -4.3625  -4.3750  -4.3880  -4.4015  -4.4155  -4.4298  -4.4444  -4.4591  -4.4738  -4.4884  -4.5027  -4.5164  -4.5295  -4.5416  -4.5526  -4.5622  -4.5701  -4.5761  -4.5799  -4.5811  -4.5793  -4.5742  -4.5653  -4.5521  -4.5340  -4.5102  -4.4799  -4.4421  -4.3960  -4.3409  -4.2761  -4.2018  -4.1183  -4.0264  -3.9269  -3.8208  -3.7090  -3.5923  -3.4714  -3.3472  -3.2203  -3.0919  -2.9631  -2.8350  -2.7088  -2.5857  -2.4669  -2.3534  -2.2459  -2.1453  -2.0520  -1.9665  -1.8888  -1.8191  -1.7570  -1.7023  -1.6545  -1.6128  -1.5767  -1.5453  -1.5182  -1.4946  -1.4740  -1.4559  -1.4399  -1.4258
3.430  -4.2741  -4.2725  -4.2712  -4.2703  -4.2699  -4.2701  -4.2708  -4.2722  -4.2744  -4.2773  -4.2811  -4.2857  -4.2911  -4.2974  -4.3044  -4.3123  -4.3209  -4.3302  -4.3401  -4.3508  -4.3620  -4.3739  -4.3865  -4.3996  -4.4133  -4.4276  -4.4424  -4.4576  -4.4732  -4.4891  -4.5051  -4.5212  -4.5371  -4.5528  -4.5681  -4.5827  -4.5965  -4.6092  -4.6207  -4.6307  -4.6389  -4.6449  -4.6486  -4.6494  -4.6471  -4.6411  -4.6310  -4.6161  -4.5958  -4.5692  -4.5354  -4.4933  -4.4422  -4.3813  -4.3105  -4.2299  -4.1401  -4.0420  -3.9365  -3.8244  -3.7068  -3.5843  -3.4578  -3.3284  -3.1972  -3.0652  -2.9338  -2.8042  -2.6776  -2.5551  -2.4379  -2.3268  -2.2225  -2.1257  -2.0368  -1.9560  -1.8834  -1.8188  -1.7621  -1.7125  -1.6696  -1.6326  -1.6008  -1.5735  -1.5499  -1.5296  -1.5119  -1.4965  -1.4829  -1.4709  -1.4602
3.420  -4.2827  -4.2829  -4.2837  -4.2851  -4.2872  -4.2901  -4.2937  -4.2982  -4.3034  -4.3095  -4.3164  -4.3241  -4.3325  -4.3416  -4.3514  -4.3619  -4.3730  -4.3848  -4.3972  -4.4102  -4.4238  -4.4381  -4.4529  -4.4683  -4.4842  -4.5005  -4.5171  -4.5340  -4.5510  -4.5680  -4.5849  -4.6014  -4.6176  -4.6331  -4.6479  -4.6616  -4.6741  -4.6852  -4.6946  -4.7020  -4.7071  -4.7095  -4.7090  -4.7050  -4.6972  -4.6849  -4.6675  -4.6440  -4.6136  -4.5752  -4.5278  -4.4707  -4.4036  -4.3263  -4.2393  -4.1432  -4.0390  -3.9274  -3.8093  -3.6858  -3.5577  -3.4262  -3.2924  -3.1578  -3.0235  -2.8908  -2.7611  -2.6355  -2.5150  -2.4007  -2.2931  -2.1931  -2.1011  -2.0174  -1.9422  -1.8753  -1.8166  -1.7656  -1.7215  -1.6838  -1.6515  -1.6241  -1.6006  -1.5805  -1.5633  -1.5484  -1.5354  -1.5241  -1.5140  -1.5051  -1.4971
3.410  -4.3001  -4.3029  -4.3064  -4.3107  -4.3159  -4.3218  -4.3285  -4.3360  -4.3443  -4.3533  -4.3629  -4.3733  -4.3842  -4.3958  -4.4080  -4.4209  -4.4343  -4.4485  -4.4632  -4.4785  -4.4944  -4.5108  -4.5276  -4.5448  -4.5622  -4.5799  -4.5976  -4.6153  -4.6327  -4.6498  -4.6664  -4.6824  -4.6975  -4.7116  -4.7244  -4.7359  -4.7457  -4.7536  -4.7592  -4.7624  -4.7628  -4.7601  -4.7537  -4.7433  -4.7279  -4.7070  -4.6793  -4.6441  -4.6001  -4.5466  -4.4831  -4.4093  -4.3254  -4.2320  -4.1297  -4.0192  -3.9014  -3.7773  -3.6481  -3.5149  -3.3791  -3.2421  -3.1053  -2.9701  -2.8377  -2.7093  -2.5861  -2.4688  -2.3585  -2.2557  -2.1609  -2.0746  -1.9970  -1.9281  -1.8676  -1.8152  -1.7701  -1.7317  -1.6991  -1.6715  -1.6482  -1.6284  -1.6116  -1.5972  -1.5848  -1.5741  -1.5647  -1.5564  -1.5491  -1.5424  -1.5364
3.400  -4.3291  -4.3349  -4.3415  -4.3489  -4.3570  -4.3659  -4.3755  -4.3857  -4.3965  -4.4080  -4.4201  -4.4328  -4.4461  -4.4601  -4.4747  -4.4899  -4.5057  -4.5220  -4.5389  -4.5562  -4.5739  -4.5919  -4.6101  -4.6284  -4.6466  -4.6647  -4.6825  -4.6998  -4.7165  -4.7325  -4.7476  -4.7616  -4.7743  -4.7855  -4.7951  -4.8028  -4.8085  -4.8118  -4.8125  -4.8103  -4.8048  -4.7955  -4.7817  -4.7625  -4.7370  -4.7042  -4.6631  -4.6128  -4.5528  -4.4825  -4.4022  -4.3118  -4.2120  -4.1032  -3.9862  -3.8621  -3.7322  -3.5977  -3.4602  -3.3212  -3.1823  -3.0448  -2.9100  -2.7792  -2.6535  -2.5338  -2.4210  -2.3157  -2.2185  -2.1299  -2.0502  -1.9794  -1.9174  -1.8637  -1.8178  -1.7787  -1.7458  -1.7182  -1.6950  -1.6755  -1.6590  -1.6451  -1.6333  -1.6231  -1.6144  -1.6067  -1.5999  -1.5939  -1.5885  -1.5835  -1.5789
3.390  -4.3661  -4.3748  -4.3842  -4.3943  -4.4050  -4.4163  -4.4282  -4.4407  -4.4539  -4.4676  -4.4820  -4.4970  -4.5126  -4.5288  -4.5455  -4.5627  -4.5803  -4.5983  -4.6166  -4.6351  -4.6537  -4.6722  -4.6906  -4.7086  -4.7263  -4.7434  -4.7597  -4.7752  -4.7896  -4.8028  -4.8147  -4.8250  -4.8337  -4.8404  -4.8452  -4.8478  -4.8480  -4.8455  -4.8399  -4.8307  -4.8173  -4.7987  -4.7742  -4.7426  -4.7029  -4.6542  -4.5956  -4.5269  -4.4478  -4.3584  -4.2591  -4.1504  -4.0331  -3.9084  -3.7776  -3.6420  -3.5034  -3.3632  -3.2230  -3.0843  -2.9483  -2.8164  -2.6895  -2.5686  -2.4545  -2.3479  -2.2494  -2.1596  -2.0787  -2.0070  -1.9442  -1.8900  -1.8438  -1.8047  -1.7719  -1.7445  -1.7217  -1.7027  -1.6868  -1.6735  -1.6623  -1.6528  -1.6447  -1.6377  -1.6315  -1.6261  -1.6213  -1.6169  -1.6129  -1.6092  -1.6057
3.380  -4.4136  -4.4247  -4.4365  -4.4489  -4.4618  -4.4754  -4.4896  -4.5044  -4.5198  -4.5358  -4.5524  -4.5694  -4.5870  -4.6049  -4.6232  -4.6417  -4.6604  -4.6792  -4.6979  -4.7165  -4.7347  -4.7526  -4.7698  -4.7863  -4.8019  -4.8165  -4.8299  -4.8420  -4.8526  -4.8616  -4.8689  -4.8745  -4.8780  -4.8796  -4.8789  -4.8757  -4.8696  -4.8601  -4.8465  -4.8281  -4.8039  -4.7728  -4.7338  -4.6858  -4.6281  -4.5602  -4.4818  -4.3930  -4.2940  -4.1853  -4.0678  -3.9426  -3.8111  -3.6748  -3.5354  -3.3945  -3.2535  -3.1140  -2.9773  -2.8446  -2.7170  -2.5954  -2.4805  -2.3731  -2.2739  -2.1834  -2.1019  -2.0297  -1.9666  -1.9123  -1.8661  -1.8272  -1.7947  -1.7678  -1.7455  -1.7270  -1.7117  -1.6990  -1.6884  -1.6795  -1.6720  -1.6655  -1.6599  -1.6551  -1.6508  -1.6469  -1.6434  -1.6402  -1.6372  -1.6344  -1.6316
3.370  -4.4701  -4.4835  -4.4976  -4.5122  -4.5275  -4.5433  -4.5597  -4.5767  -4.5941  -4.6120  -4.6302  -4.6488  -4.6675  -4.6864  -4.7053  -4.7242  -4.7429  -4.7612  -4.7791  -4.7963  -4.8128  -4.8284  -4.8430  -4.8563  -4.8683  -4.8790  -4.8880  -4.8955  -4.9013  -4.9053  -4.9076  -4.9079  -4.9061  -4.9020  -4.8951  -4.8850  -4.8710  -4.8523  -4.8280  -4.7969  -4.7580  -4.7102  -4.6527  -4.5851  -4.5069  -4.4182  -4.3192  -4.2104  -4.0926  -3.9670  -3.8350  -3.6983  -3.5584  -3.4169  -3.2755  -3.1356  -2.9985  -2.8655  -2.7375  -2.6155  -2.5003  -2.3926  -2.2930  -2.2022  -2.1206  -2.0484  -1.9855  -1.9315  -1.8857  -1.8474  -1.8155  -1.7892  -1.7675  -1.7497  -1.7350  -1.7230  -1.7129  -1.7046  -1.6976  -1.6916  -1.6865  -1.6821  -1.6783  -1.6749  -1.6718  -1.6690  -1.6665  -1.6640  -1.6617  -1.6594  -1.6572
3.360  -4.5357  -4.5514  -4.5677  -4.5846  -4.6019  -4.6197  -4.6379  -4.6565  -4.6753  -4.6942  -4.7133  -4.7323  -4.7513  -4.7700  -4.7883  -4.8061  -4.8233  -4.8397  -4.8551  -4.8695  -4.8826  -4.8944  -4.9048  -4.9137  -4.9210  -4.9268  -4.9309  -4.9334  -4.9343  -4.9334  -4.9305  -4.9254  -4.9177  -4.9068  -4.8922  -4.8729  -4.8481  -4.8166  -4.7773  -4.7292  -4.6715  -4.6036  -4.5252  -4.4363  -4.3371  -4.2279  -4.1098  -3.9838  -3.8515  -3.7144  -3.5742  -3.4325  -3.2908  -3.1507  -3.0135  -2.8803  -2.7522  -2.6301  -2.5149  -2.4071  -2.3077  -2.2171  -2.1359  -2.0642  -2.0020  -1.9487  -1.9037  -1.8663  -1.8352  -1.8098  -1.7889  -1.7719  -1.7579  -1.7465  -1.7370  -1.7292  -1.7227  -1.7172  -1.7126  -1.7086  -1.7052  -1.7021  -1.6994  -1.6970  -1.6948  -1.6927  -1.6907  -1.6888  -1.6869  -1.6851  -1.6832
3.350  -4.6106  -4.6284  -4.6466  -4.6651  -4.6840  -4.7030  -4.7221  -4.7413  -4.7605  -4.7794  -4.7981  -4.8163  -4.8340  -4.8510  -4.8672  -4.8823  -4.8963  -4.9091  -4.9205  -4.9306  -4.9391  -4.9461  -4.9516  -4.9556  -4.9582  -4.9592  -4.9587  -4.9566  -4.9526  -4.9466  -4.9380  -4.9263  -4.9110  -4.8910  -4.8654  -4.8332  -4.7932  -4.7445  -4.6861  -4.6175  -4.5386  -4.4492  -4.3495  -4.2399  -4.1213  -3.9950  -3.8624  -3.7251  -3.5847  -3.4428  -3.3010  -3.1607  -3.0234  -2.8902  -2.7622  -2.6402  -2.5251  -2.4178  -2.3188  -2.2290  -2.1487  -2.0780  -2.0169  -1.9649  -1.9212  -1.8850  -1.8551  -1.8307  -1.8108  -1.7946  -1.7815  -1.7707  -1.7619  -1.7546  -1.7486  -1.7436  -1.7393  -1.7357  -1.7326  -1.7299  -1.7275  -1.7254  -1.7234  -1.7216  -1.7199  -1.7183  -1.7168  -1.7152  -1.7137  -1.7121  -1.7105
3.340  -4.6939  -4.7130  -4.7322  -4.7515  -4.7708  -4.7900  -4.8089  -4.8275  -4.8455  -4.8630  -4.8797  -4.8954  -4.9101  -4.9237  -4.9360  -4.9469  -4.9565  -4.9645  -4.9711  -4.9762  -4.9799  -4.9823  -4.9833  -4.9831  -4.9814  -4.9782  -4.9733  -4.9664  -4.9570  -4.9445  -4.9283  -4.9074  -4.8810  -4.8479  -4.8069  -4.7571  -4.6978  -4.6284  -4.5486  -4.4585  -4.3581  -4.2480  -4.1290  -4.0023  -3.8694  -3.7318  -3.5912  -3.4491  -3.3072  -3.1668  -3.0294  -2.8962  -2.7683  -2.6467  -2.5321  -2.4255  -2.3275  -2.2389  -2.1600  -2.0910  -2.0316  -1.9813  -1.9393  -1.9047  -1.8763  -1.8532  -1.8344  -1.8192  -1.8069  -1.7969  -1.7887  -1.7820  -1.7764  -1.7718  -1.7679  -1.7646  -1.7618  -1.7594  -1.7573  -1.7554  -1.7537  -1.7522  -1.7507  -1.7493  -1.7480  -1.7467  -1.7454  -1.7441  -1.7428  -1.7414  -1.7400
3.330  -4.7827  -4.8020  -4.8212  -4.8400  -4.8583  -4.8761  -4.8932  -4.9094  -4.9247  -4.9388  -4.9518  -4.9635  -4.9738  -4.9827  -4.9902  -4.9962  -5.0009  -5.0042  -5.0063  -5.0072  -5.0070  -5.0056  -5.0030  -4.9989  -4.9932  -4.9855  -4.9753  -4.9620  -4.9449  -4.9232  -4.8957  -4.8615  -4.8193  -4.7684  -4.7079  -4.6374  -4.5568  -4.4658  -4.3648  -4.2540  -4.1345  -4.0074  -3.8741  -3.7362  -3.5952  -3.4528  -3.3106  -3.1700  -3.0325  -2.8995  -2.7719  -2.6507  -2.5370  -2.4315  -2.3350  -2.2481  -2.1713  -2.1045  -2.0474  -1.9994  -1.9595  -1.9268  -1.9001  -1.8785  -1.8611  -1.8469  -1.8355  -1.8263  -1.8187  -1.8126  -1.8075  -1.8033  -1.7998  -1.7968  -1.7943  -1.7921  -1.7902  -1.7886  -1.7871  -1.7857  -1.7844  -1.7833  -1.7821  -1.7810  -1.7799  -1.7789  -1.7778  -1.7766  -1.7755  -1.7742  -1.7730
3.320  -4.8729  -4.8909  -4.9083  -4.9249  -4.9405  -4.9551  -4.9686  -4.9809  -4.9918  -5.0014  -5.0096  -5.0163  -5.0218  -5.0259  -5.0288  -5.0306  -5.0314  -5.0312  -5.0299  -5.0277  -5.0243  -5.0196  -5.0132  -5.0048  -4.9939  -4.9798  -4.9619  -4.9391  -4.9106  -4.8752  -4.8319  -4.7797  -4.7180  -4.6464  -4.5648  -4.4731  -4.3714  -4.2601  -4.1400  -4.0123  -3.8785  -3.7400  -3.5985  -3.4555  -3.3128  -3.1719  -3.0343  -2.9014  -2.7743  -2.6540  -2.5415  -2.4376  -2.3432  -2.2588  -2.1847  -2.1208  -2.0665  -2.0212  -1.9839  -1.9534  -1.9286  -1.9087  -1.8926  -1.8797  -1.8692  -1.8608  -1.8539  -1.8483  -1.8437  -1.8398  -1.8367  -1.8340  -1.8317  -1.8298  -1.8281  -1.8266  -1.8253  -1.8241  -1.8230  -1.8220  -1.8210  -1.8200  -1.8191  -1.8182  -1.8173  -1.8163  -1.8153  -1.8143  -1.8132  -1.8121  -1.8109
3.310  -4.9584  -4.9733  -4.9871  -4.9998  -5.0112  -5.0213  -5.0301  -5.0375  -5.0435  -5.0483  -5.0519  -5.0544  -5.0559  -5.0565  -5.0563  -5.0552  -5.0533  -5.0505  -5.0466  -5.0414  -5.0345  -5.0256  -5.0140  -4.9992  -4.9805  -4.9569  -4.9274  -4.8909  -4.8464  -4.7930  -4.7303  -4.6579  -4.5756  -4.4833  -4.3810  -4.2691  -4.1484  -4.0200  -3.8854  -3.7460  -3.6036  -3.4598  -3.3164  -3.1752  -3.0376  -2.9050  -2.7786  -2.6595  -2.5487  -2.4471  -2.3555  -2.2742  -2.2034  -2.1429  -2.0921  -2.0499  -2.0154  -1.9873  -1.9647  -1.9465  -1.9319  -1.9202  -1.9108  -1.9031  -1.8969  -1.8918  -1.8877  -1.8842  -1.8814  -1.8789  -1.8769  -1.8751  -1.8736  -1.8723  -1.8711  -1.8701  -1.8691  -1.8682  -1.8674  -1.8665  -1.8657  -1.8649  -1.8641  -1.8633  -1.8625  -1.8616  -1.8607  -1.8597  -1.8587  -1.8576  -1.8564
3.300  -5.0336  -5.0441  -5.0533  -5.0612  -5.0677  -5.0731  -5.0773  -5.0804  -5.0826  -5.0839  -5.0844  -5.0843  -5.0834  -5.0819  -5.0796  -5.0765  -5.0723  -5.0668  -5.0596  -5.0502  -5.0382  -5.0230  -5.0037  -4.9795  -4.9492  -4.9119  -4.8666  -4.8125  -4.7492  -4.6764  -4.5938  -4.5013  -4.3988  -4.2864  -4.1651  -4.0358  -3.9001  -3.7597  -3.6163  -3.4717  -3.3277  -3.1862  -3.0487  -2.9167  -2.7914  -2.6741  -2.5656  -2.4669  -2.3786  -2.3011  -2.2343  -2.1778  -2.1307  -2.0919  -2.0605  -2.0351  -2.0146  -1.9983  -1.9852  -1.9747  -1.9662  -1.9593  -1.9538  -1.9492  -1.9455  -1.9424  -1.9398  -1.9376  -1.9357  -1.9342  -1.9328  -1.9316  -1.9305  -1.9296  -1.9287  -1.9279  -1.9271  -1.9263  -1.9256  -1.9249  -1.9241  -1.9234  -1.9226  -1.9218  -1.9209  -1.9200  -1.9191  -1.9180  -1.9169  -1.9157  -1.9144
3.290  -5.0843  -5.0898  -5.0941  -5.0975  -5.0999  -5.1015  -5.1023  -5.1025  -5.1021  -5.1011  -5.0996  -5.0974  -5.0946  -5.0908  -5.0860  -5.0797  -5.0715  -5.0611  -5.0478  -5.0310  -5.0097  -4.9830  -4.9499  -4.9091  -4.8600  -4.8019  -4.7345  -4.6576  -4.5709  -4.4741  -4.3675  -4.2513  -4.1265  -3.9943  -3.8563  -3.7140  -3.5694  -3.4243  -3.2805  -3.1399  -3.0040  -2.8743  -2.7520  -2.6383  -2.5342  -2.4403  -2.3572  -2.2851  -2.2237  -2.1722  -2.1298  -2.0952  -2.0673  -2.0449  -2.0270  -2.0126  -2.0012  -1.9920  -1.9846  -1.9786  -1.9737  -1.9697  -1.9664  -1.9637  -1.9614  -1.9595  -1.9579  -1.9565  -1.9553  -1.9543  -1.9533  -1.9525  -1.9517  -1.9510  -1.9504  -1.9498  -1.9492  -1.9486  -1.9480  -1.9474  -1.9467  -1.9461  -1.9454  -1.9447  -1.9439  -1.9431  -1.9422  -1.9412  -1.9401  -1.9390  -1.9378
3.280  -5.1168  -5.1186  -5.1197  -5.1201  -5.1200  -5.1194  -5.1184  -5.1168  -5.1148  -5.1121  -5.1088  -5.1045  -5.0990  -5.0919  -5.0828  -5.0712  -5.0564  -5.0377  -5.0140  -4.9844  -4.9477  -4.9029  -4.8495  -4.7870  -4.7151  -4.6336  -4.5422  -4.4407  -4.3295  -4.2090  -4.0803  -3.9449  -3.8043  -3.6602  -3.5146  -3.3692  -3.2261  -3.0871  -2.9536  -2.8272  -2.7089  -2.6000  -2.5012  -2.4132  -2.3363  -2.2703  -2.2148  -2.1689  -2.1314  -2.1011  -2.0768  -2.0574  -2.0419  -2.0296  -2.0197  -2.0118  -2.0054  -2.0002  -1.9960  -1.9925  -1.9897  -1.9873  -1.9853  -1.9837  -1.9822  -1.9810  -1.9800  -1.9791  -1.9783  -1.9775  -1.9769  -1.9763  -1.9757  -1.9752  -1.9747  -1.9742  -1.9737  -1.9732  -1.9727  -1.9722  -1.9716  -1.9711  -1.9704  -1.9698  -1.9691  -1.9683  -1.9675  -1.9666  -1.9656  -1.9645  -1.9633
3.270  -5.1374  -5.1371  -5.1364  -5.1352  -5.1337  -5.1318  -5.1294  -5.1265  -5.1227  -5.1180  -5.1118  -5.1040  -5.0938  -5.0807  -5.0641  -5.0430  -5.0164  -4.9832  -4.9424  -4.8931  -4.8350  -4.7676  -4.6907  -4.6039  -4.5072  -4.4004  -4.2840  -4.1588  -4.0260  -3.8872  -3.7440  -3.5983  -3.4520  -3.3071  -3.1655  -3.0290  -2.8990  -2.7769  -2.6638  -2.5607  -2.4684  -2.3873  -2.3174  -2.2583  -2.2093  -2.1691  -2.1367  -2.1107  -2.0900  -2.0734  -2.0603  -2.0498  -2.0414  -2.0347  -2.0292  -2.0248  -2.0212  -2.0182  -2.0157  -2.0137  -2.0120  -2.0105  -2.0093  -2.0083  -2.0073  -2.0065  -2.0058  -2.0052  -2.0047  -2.0042  -2.0037  -2.0032  -2.0028  -2.0024  -2.0020  -2.0016  -2.0012  -2.0008  -2.0003  -1.9998  -1.9993  -1.9988  -1.9983  -1.9976  -1.9970  -1.9963  -1.9955  -1.9946  -1.9936  -1.9926  -1.9914
3.260  -5.1519  -5.1505  -5.1488  -5.1467  -5.1441  -5.1410  -5.1369  -5.1317  -5.1249  -5.1160  -5.1045  -5.0897  -5.0708  -5.0468  -5.0166  -4.9792  -4.9337  -4.8794  -4.8160  -4.7431  -4.6605  -4.5678  -4.4650  -4.3523  -4.2302  -4.0999  -3.9629  -3.8208  -3.6754  -3.5286  -3.3825  -3.2390  -3.0999  -2.9671  -2.8418  -2.7253  -2.6186  -2.5227  -2.4380  -2.3647  -2.3026  -2.2508  -2.2085  -2.1742  -2.1468  -2.1249  -2.1075  -2.0937  -2.0828  -2.0740  -2.0670  -2.0613  -2.0567  -2.0530  -2.0499  -2.0474  -2.0453  -2.0435  -2.0420  -2.0408  -2.0397  -2.0388  -2.0380  -2.0373  -2.0367  -2.0362  -2.0357  -2.0353  -2.0349  -2.0345  -2.0341  -2.0338  -2.0335  -2.0331  -2.0328  -2.0324  -2.0321  -2.0317  -2.0313  -2.0309  -2.0304  -2.0299  -2.0294  -2.0288  -2.0282  -2.0275  -2.0268  -2.0259  -2.0250  -2.0240  -2.0228
3.250  -5.1642  -5.1621  -5.1596  -5.1563  -5.1519  -5.1462  -5.1385  -5.1284  -5.1152  -5.0982  -5.0764  -5.0489  -5.0144  -4.9721  -4.9212  -4.8613  -4.7919  -4.7128  -4.6237  -4.5243  -4.4147  -4.2954  -4.1675  -4.0322  -3.8912  -3.7463  -3.5994  -3.4524  -3.3075  -3.1666  -3.0315  -2.9036  -2.7844  -2.6749  -2.5760  -2.4884  -2.4124  -2.3478  -2.2939  -2.2498  -2.2141  -2.1855  -2.1628  -2.1448  -2.1306  -2.1193  -2.1102  -2.1030  -2.0972  -2.0925  -2.0887  -2.0856  -2.0830  -2.0809  -2.0791  -2.0776  -2.0763  -2.0752  -2.0743  -2.0735  -2.0729  -2.0723  -2.0717  -2.0713  -2.0709  -2.0705  -2.0702  -2.0698  -2.0695  -2.0692  -2.0690  -2.0687  -2.0684  -2.0681  -2.0678  -2.0675  -2.0672  -2.0669  -2.0665  -2.0661  -2.0657  -2.0652  -2.0647  -2.0642  -2.0636  -2.0629  -2.0622  -2.0614  -2.0604  -2.0594  -2.0583
3.240  -5.1765  -5.1731  -5.1684  -5.1618  -5.1530  -5.1413  -5.1260  -5.1062  -5.0809  -5.0490  -5.0095  -4.9615  -4.9045  -4.8381  -4.7619  -4.6757  -4.5792  -4.4723  -4.3554  -4.2295  -4.0958  -3.9559  -3.8116  -3.6648  -3.5174  -3.3716  -3.2294  -3.0926  -2.9629  -2.8416  -2.7299  -2.6287  -2.5390  -2.4609  -2.3944  -2.3391  -2.2937  -2.2571  -2.2279  -2.2047  -2.1863  -2.1718  -2.1603  -2.1512  -2.1439  -2.1380  -2.1333  -2.1294  -2.1263  -2.1237  -2.1216  -2.1198  -2.1183  -2.1170  -2.1160  -2.1150  -2.1143  -2.1136  -2.1130  -2.1125  -2.1121  -2.1117  -2.1113  -2.1110  -2.1107  -2.1104  -2.1102  -2.1099  -2.1097  -2.1095  -2.1092  -2.1090  -2.1088  -2.1085  -2.1082  -2.1080  -2.1077  -2.1073  -2.1070  -2.1066  -2.1062  -2.1058  -2.1053  -2.1048  -2.1042  -2.1035  -2.1028  -2.1020  -2.1011  -2.1000  -2.0988
3.230  -5.1868  -5.1792  -5.1689  -5.1551  -5.1370  -5.1137  -5.0840  -5.0468  -5.0012  -4.9466  -4.8826  -4.8089  -4.7251  -4.6309  -4.5262  -4.4114  -4.2872  -4.1549  -4.0162  -3.8726  -3.7262  -3.5788  -3.4325  -3.2895  -3.1517  -3.0207  -2.8980  -2.7848  -2.6821  -2.5908  -2.5114  -2.4439  -2.3877  -2.3418  -2.3048  -2.2753  -2.2520  -2.2336  -2.2191  -2.2076  -2.1985  -2.1913  -2.1855  -2.1808  -2.1770  -2.1739  -2.1713  -2.1692  -2.1674  -2.1660  -2.1647  -2.1637  -2.1628  -2.1620  -2.1613  -2.1608  -2.1603  -2.1598  -2.1595  -2.1591  -2.1588  -2.1586  -2.1583  -2.1581  -2.1579  -2.1577  -2.1575  -2.1573  -2.1571  -2.1569  -2.1567  -2.1565  -2.1563  -2.1560  -2.1558  -2.1555  -2.1553  -2.1550  -2.1546  -2.1543  -2.1539  -2.1534  -2.1529  -2.1524  -2.1518  -2.1511  -2.1504  -2.1495  -2.1485  -2.1474  -2.1461
3.220  -5.1865  -5.1700  -5.1483  -5.1204  -5.0851  -5.0415  -4.9889  -4.9268  -4.8551  -4.7732  -4.6809  -4.5782  -4.4651  -4.3426  -4.2117  -4.0741  -3.9314  -3.7856  -3.6387  -3.4926  -3.3495  -3.2113  -3.0797  -2.9563  -2.8422  -2.7387  -2.6467  -2.5668  -2.4990  -2.4427  -2.3969  -2.3601  -2.3309  -2.3079  -2.2898  -2.2756  -2.2644  -2.2555  -2.2484  -2.2427  -2.2382  -2.2345  -2.2314  -2.2290  -2.2269  -2.2252  -2.2238  -2.2226  -2.2215  -2.2207  -2.2199  -2.2193  -2.2188  -2.2183  -2.2179  -2.2175  -2.2172  -2.2169  -2.2166  -2.2164  -2.2162  -2.2160  -2.2158  -2.2157  -2.2155  -2.2154  -2.2152  -2.2150  -2.2149  -2.2147  -2.2145  -2.2143  -2.2141  -2.2139  -2.2137  -2.2134  -2.2131  -2.2128  -2.2125  -2.2121  -2.2117  -2.2112  -2.2107  -2.2101  -2.2095  -2.2087  -2.2078  -2.2068  -2.2057  -2.2044  -2.2028
3.210  -5.1596  -5.1258  -5.0838  -5.0329  -4.9725  -4.9024  -4.8222  -4.7318  -4.6308  -4.5197  -4.3989  -4.2696  -4.1334  -3.9921  -3.8475  -3.7017  -3.5568  -3.4146  -3.2771  -3.1460  -3.0226  -2.9085  -2.8050  -2.7131  -2.6336  -2.5663  -2.5108  -2.4659  -2.4300  -2.4016  -2.3794  -2.3619  -2.3483  -2.3375  -2.3290  -2.3223  -2.3169  -2.3125  -2.3090  -2.3062  -2.3038  -2.3019  -2.3002  -2.2989  -2.2978  -2.2968  -2.2960  -2.2953  -2.2947  -2.2942  -2.2937  -2.2933  -2.2930  -2.2927  -2.2924  -2.2922  -2.2920  -2.2918  -2.2916  -2.2915  -2.2913  -2.2912  -2.2911  -2.2909  -2.2908  -2.2907  -2.2905  -2.2904  -2.2902  -2.2901  -2.2899  -2.2897  -2.2894  -2.2892  -2.2889  -2.2886  -2.2883  -2.2879  -2.2875  -2.2871  -2.2865  -2.2859  -2.2853  -2.2845  -2.2836  -2.2826  -2.2814  -2.2800  -2.2784  -2.2765  -2.2744
3.200  -5.0817  -5.0231  -4.9548  -4.8765  -4.7882  -4.6896  -4.5810  -4.4628  -4.3361  -4.2023  -4.0635  -3.9217  -3.7793  -3.6386  -3.5014  -3.3691  -3.2428  -3.1235  -3.0126  -2.9117  -2.8221  -2.7446  -2.6795  -2.6261  -2.5831  -2.5490  -2.5223  -2.5014  -2.4852  -2.4726  -2.4627  -2.4550  -2.4489  -2.4440  -2.4401  -2.4370  -2.4344  -2.4324  -2.4307  -2.4293  -2.4281  -2.4271  -2.4263  -2.4256  -2.4250  -2.4245  -2.4241  -2.4237  -2.4234  -2.4231  -2.4228  -2.4226  -2.4224  -2.4222  -2.4220  -2.4219  -2.4217  -2.4216  -2.4214  -2.4213  -2.4211  -2.4209  -2.4208  -2.4206  -2.4203  -2.4201  -2.4198  -2.4195  -2.4191  -2.4187  -2.4182  -2.4177  -2.4171  -2.4164  -2.4156  -2.4147  -2.4136  -2.4125  -2.4111  -2.4096  -2.4079  -2.4060  -2.4038  -2.4013  -2.3986  -2.3956  -2.3924  -2.3888  -2.3850  -2.3808  -2.3764
#
# AESOPUS computation completed
