#  Calculations performed with AESOPUS via the web interface: http://stev.oapd.inaf.it/aesopus
#  Date:  11/07/2019; Central European Time  01:37:35
#  Tables of Rosseland mean opacities
#  Reference paper: Marigo & Aringer (2009, A&A, 508, 1539)
#
#  Definitions:
#  The base-10 logarithm of the Rosseland mean opacity [cm**2/g] as a function
#  of log10(T) for columns of constant log10(R), where:
#  R=density[g/cm**3]/T6**3, T6=1.e-6*T[K]
#
#  Ranges of state parameters
#
#  log10(T) range: nt=  67  values from  4.500  to  3.200
#  log10(T) = [3.200,3.700] in steps of  0.010
#  log10(T) = ]3.700,4.500] in steps of  0.050
#
#  log10(R) range: nre= 91  values from -8.000  to  1.000
#                           in steps of  0.100
#
#
#  Composition parameters:
#
#       X     = hydrogen mass fraction
#               mh =  1 values from 0.700 to 0.700 in steps of 0.200
#       Zref  = 5.000000E-05  reference metallicity
#       Z     = actual metallicity
#
#       Reference solar mixture: Grevesse & Sauval 1998 ---- Zsun =  0.01696  (C/O)sun =  0.48978
#
#     Zi   element   (ni/nz)sun         (Xi/Z)sun         <Ai>
#
#      3     Li     9.323684E-09     3.757845E-09     6.941739E+00
#      4     Be     1.859891E-08     9.731966E-09     9.012183E+00
#      5     B      2.627166E-07     1.649247E-07     1.081222E+01
#      6     C      2.451814E-01     1.709837E-01     1.201114E+01
#      7     N      6.158679E-02     5.008508E-02     1.400676E+01
#      8     O      5.005962E-01     4.650221E-01     1.599938E+01
#      9     F      2.688361E-05     2.965430E-05     1.899841E+01
#     10     Ne     8.904049E-02     1.042809E-01     2.017132E+01
#     11     Na     1.583024E-03     2.113028E-03     2.298977E+01
#     12     Mg     2.814411E-02     3.972350E-02     2.430955E+01
#     13     Al     2.184679E-03     3.422452E-03     2.698154E+01
#     14     Si     2.627166E-02     4.284049E-02     2.808561E+01
#     15     P      2.086832E-04     3.752879E-04     3.097377E+01
#     16     S      1.583024E-02     2.947097E-02     3.206445E+01
#     17     Cl     2.341464E-04     4.820356E-04     3.545753E+01
#     18     Ar     1.859891E-03     4.313819E-03     3.994766E+01
#     19     K      9.758600E-05     2.215449E-04     3.910130E+01
#     20     Ca     1.696632E-03     3.947852E-03     4.007654E+01
#     21     Sc     1.094933E-06     2.857969E-06     4.495592E+01
#     22     Ti     7.753317E-05     2.155336E-04     4.787893E+01
#     23     V      7.404360E-06     2.189994E-05     5.094157E+01
#     24     Cr     3.463279E-04     1.045572E-03     5.199762E+01
#     25     Mn     1.817136E-04     5.796206E-04     5.493805E+01
#     26     Fe     2.341464E-02     7.592291E-02     5.584731E+01
#     27     Co     6.158679E-05     2.107320E-04     5.893319E+01
#     28     Ni     1.316702E-03     4.487945E-03     5.870525E+01
#     29     Cu     1.201123E-05     4.431668E-05     6.354723E+01
#     30     Zn     2.947729E-05     1.119080E-04     6.538687E+01
#     31     Ga     5.616782E-07     2.273583E-06     6.971723E+01
#     32     Ge     1.903214E-06     8.025819E-06     7.263045E+01
#     33     As     1.736151E-07     7.552272E-07     7.492160E+01
#     34     Se     1.903214E-06     8.728593E-06     7.899028E+01
#     35     Br     3.158548E-07     1.465389E-06     7.990652E+01
#     36     Kr     1.511428E-06     7.353928E-06     8.380092E+01
#     37     Rb     2.947729E-07     1.462765E-06     8.546807E+01
#     38     Sr     6.910151E-07     3.515251E-06     8.761646E+01
#     39     Y      1.287027E-07     6.643562E-07     8.890587E+01
#     40     Zr     2.947729E-07     1.561272E-06     9.122375E+01
#     41     Nb     1.947545E-08     1.050549E-07     9.290638E+01
#     42     Mo     6.158679E-08     3.428800E-07     9.588960E+01
#     43     Tc     0.000000E+00     0.000000E+00     9.690639E+01
#     44     Ru     5.122566E-08     3.005927E-07     1.010666E+02
#     45     Rh     9.758600E-09     5.830546E-08     1.029055E+02
#     46     Pd     3.626499E-08     2.240978E-07     1.064307E+02
#     47     Ag     6.448928E-09     4.038921E-08     1.078685E+02
#     48     Cd     4.360011E-08     2.845931E-07     1.124227E+02
#     49     In     3.384446E-08     2.256221E-07     1.148183E+02
#     50     Sn     7.404360E-08     5.104404E-07     1.187338E+02
#     51     Sb     7.404360E-09     5.234457E-08     1.217590E+02
#     52     Te     1.287027E-07     9.537093E-07     1.276278E+02
#     53     I      2.395452E-08     1.765011E-07     1.269045E+02
#     54     Xe     1.094933E-07     8.346586E-07     1.312920E+02
#     55     Cs     9.990507E-09     7.709272E-08     1.329054E+02
#     56     Ba     9.990507E-08     7.965774E-07     1.373275E+02
#     57     La     1.094933E-08     8.830597E-08     1.389055E+02
#     58     Ce     2.814411E-08     2.289570E-07     1.401146E+02
#     59     Pr     3.796536E-09     3.106028E-08     1.409077E+02
#     60     Nd     2.341464E-08     1.960919E-07     1.442411E+02
#     61     Pm     0.000000E+00     0.000000E+00     1.449128E+02
#     62     Sm     7.576830E-09     6.614742E-08     1.503635E+02
#     63     Eu     2.395452E-09     2.113547E-08     1.519642E+02
#     64     Gd     9.758600E-09     8.909990E-08     1.572558E+02
#     65     Tb     5.881492E-10     5.427051E-09     1.589254E+02
#     66     Dy     1.022322E-08     9.645489E-08     1.625001E+02
#     67     Ho     1.347372E-09     1.290242E-08     1.649304E+02
#     68     Er     6.302133E-09     6.120210E-08     1.672614E+02
#     69     Tm     7.404360E-10     7.262536E-09     1.689342E+02
#     70     Yb     8.904049E-09     8.945589E-08     1.730367E+02
#     71     Lu     8.503301E-10     8.638257E-09     1.749667E+02
#     72     Hf     5.616782E-09     5.820847E-08     1.784907E+02
#     73     Ta     5.488928E-10     5.766657E-09     1.809479E+02
#     74     W      9.540860E-09     1.018390E-07     1.838415E+02
#     75     Re     1.410872E-09     1.525392E-08     1.862134E+02
#     76     Os     2.086832E-08     2.304976E-07     1.902374E+02
#     77     Ir     1.658011E-08     1.850377E-07     1.922161E+02
#     78     Pt     4.671835E-08     5.291572E-07     1.950806E+02
#     79     Au     7.576830E-09     8.664890E-08     1.969666E+02
#     80     Hg     9.990507E-09     1.163576E-07     2.005969E+02
#     81     Tl     5.881492E-09     6.979384E-08     2.043838E+02
#     82     Pb     6.599143E-08     7.939617E-07     2.072187E+02
#     83     Bi     3.796536E-09     4.606554E-08     2.089804E+02
#     84     Po     0.000000E+00     0.000000E+00     2.089824E+02
#     85     At     0.000000E+00     0.000000E+00     2.099870E+02
#     86     Rn     0.000000E+00     0.000000E+00     2.220176E+02
#     87     Fr     0.000000E+00     0.000000E+00     2.230198E+02
#     88     Ra     0.000000E+00     0.000000E+00     2.260254E+02
#     89     Ac     0.000000E+00     0.000000E+00     2.270278E+02
#     90     Th     9.105159E-10     1.226676E-08     2.320381E+02
#     91     Pa     0.000000E+00     0.000000E+00     2.310359E+02
#     92     U      2.341464E-10     3.235939E-09     2.380289E+02
#     93     Np     0.000000E+00     0.000000E+00     2.370482E+02
#     94     Pu     0.000000E+00     0.000000E+00     2.440642E+02
#     95     Am     0.000000E+00     0.000000E+00     2.430614E+02
#     96     Cm     0.000000E+00     0.000000E+00     2.470704E+02
#     97     Bk     0.000000E+00     0.000000E+00     2.470703E+02
#     98     Cf     0.000000E+00     0.000000E+00     2.510796E+02
#     99     Es     0.000000E+00     0.000000E+00     2.540881E+02
#
#
#  Abundance ratio variations of metals with respect to 
#  scaled-solar values: [X_i/Fe] (in dex)
#  Fe-group elements: V, Cr, Mn, Fe, Co, Ni, Cu, Zn
#  Reference metallicity is preserved:  Zref = Z
#  No change in any metal abundance
#
#       1    H         -----      34   [Se/Fe]=   0.000      67   [Ho/Fe]=   0.000
#       2    He        -----      35   [Br/Fe]=   0.000      68   [Er/Fe]=   0.000
#       3   [Li/Fe]=   0.000      36   [Kr/Fe]=   0.000      69   [Tm/Fe]=   0.000
#       4   [Be/Fe]=   0.000      37   [Rb/Fe]=   0.000      70   [Yb/Fe]=   0.000
#       5   [B /Fe]=   0.000      38   [Sr/Fe]=   0.000      71   [Lu/Fe]=   0.000
#       6   [C /Fe]=   0.000      39   [Y /Fe]=   0.000      72   [Hf/Fe]=   0.000
#       7   [N /Fe]=   0.000      40   [Zr/Fe]=   0.000      73   [Ta/Fe]=   0.000
#       8   [O /Fe]=   0.000      41   [Nb/Fe]=   0.000      74   [W /Fe]=   0.000
#       9   [F /Fe]=   0.000      42   [Mo/Fe]=   0.000      75   [Re/Fe]=   0.000
#      10   [Ne/Fe]=   0.000      43   [Tc/Fe]=   0.000      76   [Os/Fe]=   0.000
#      11   [Na/Fe]=   0.000      44   [Ru/Fe]=   0.000      77   [Ir/Fe]=   0.000
#      12   [Mg/Fe]=   0.000      45   [Rh/Fe]=   0.000      78   [Pt/Fe]=   0.000
#      13   [Al/Fe]=   0.000      46   [Pd/Fe]=   0.000      79   [Au/Fe]=   0.000
#      14   [Si/Fe]=   0.000      47   [Ag/Fe]=   0.000      80   [Hg/Fe]=   0.000
#      15   [P /Fe]=   0.000      48   [Cd/Fe]=   0.000      81   [Tl/Fe]=   0.000
#      16   [S /Fe]=   0.000      49   [In/Fe]=   0.000      82   [Pb/Fe]=   0.000
#      17   [Cl/Fe]=   0.000      50   [Sn/Fe]=   0.000      83   [Bi/Fe]=   0.000
#      18   [Ar/Fe]=   0.000      51   [Sb/Fe]=   0.000      84   [Po/Fe]=   0.000
#      19   [K /Fe]=   0.000      52   [Te/Fe]=   0.000      85   [At/Fe]=   0.000
#      20   [Ca/Fe]=   0.000      53   [I /Fe]=   0.000      86   [Rn/Fe]=   0.000
#      21   [Sc/Fe]=   0.000      54   [Xe/Fe]=   0.000      87   [Fr/Fe]=   0.000
#      22   [Ti/Fe]=   0.000      55   [Cs/Fe]=   0.000      88   [Ra/Fe]=   0.000
#      23    V         -----      56   [Ba/Fe]=   0.000      89   [Ac/Fe]=   0.000
#      24    Cr        -----      57   [La/Fe]=   0.000      90   [Th/Fe]=   0.000
#      25    Mn        -----      58   [Ce/Fe]=   0.000      91   [Pa/Fe]=   0.000
#      26    Fe        -----      59   [Pr/Fe]=   0.000      92   [U /Fe]=   0.000
#      27    Co        -----      60   [Nd/Fe]=   0.000      93   [Np/Fe]=   0.000
#      28    Ni        -----      61   [Pm/Fe]=   0.000      94   [Pu/Fe]=   0.000
#      29    Cu        -----      62   [Sm/Fe]=   0.000      95   [Am/Fe]=   0.000
#      30    Zn        -----      63   [Eu/Fe]=   0.000      96   [Cm/Fe]=   0.000
#      31   [Ga/Fe]=   0.000      64   [Gd/Fe]=   0.000      97   [Bk/Fe]=   0.000
#      32   [Ge/Fe]=   0.000      65   [Tb/Fe]=   0.000      98   [Cf/Fe]=   0.000
#      33   [As/Fe]=   0.000      66   [Dy/Fe]=   0.000      99   [Es/Fe]=   0.000
#
#
#  Individual variations of metal abundances (number fraction): log10(variation factor) (in dex)
#  Reference metallicity is in general NOT preserved Zref != Z
#
#       1   H    -----      34   Se   0.000      67   Ho   0.000
#       2   He   -----      35   Br   0.000      68   Er   0.000
#       3   Li   0.000      36   Kr   0.000      69   Tm   0.000
#       4   Be   0.000      37   Rb   0.000      70   Yb   0.000
#       5   B    0.000      38   Sr   0.000      71   Lu   0.000
#       6   C    0.000      39   Y    0.000      72   Hf   0.000
#       7   N    0.000      40   Zr   0.000      73   Ta   0.000
#       8   O    0.000      41   Nb   0.000      74   W    0.000
#       9   F    0.000      42   Mo   0.000      75   Re   0.000
#      10   Ne   0.000      43   Tc   0.000      76   Os   0.000
#      11   Na   0.000      44   Ru   0.000      77   Ir   0.000
#      12   Mg   0.000      45   Rh   0.000      78   Pt   0.000
#      13   Al   0.000      46   Pd   0.000      79   Au   0.000
#      14   Si   0.000      47   Ag   0.000      80   Hg   0.000
#      15   P    0.000      48   Cd   0.000      81   Tl   0.000
#      16   S    0.000      49   In   0.000      82   Pb   0.000
#      17   Cl   0.000      50   Sn   0.000      83   Bi   0.000
#      18   Ar   0.000      51   Sb   0.000      84   Po   0.000
#      19   K    0.000      52   Te   0.000      85   At   0.000
#      20   Ca   0.000      53   I    0.000      86   Rn   0.000
#      21   Sc   0.000      54   Xe   0.000      87   Fr   0.000
#      22   Ti   0.000      55   Cs   0.000      88   Ra   0.000
#      23   V    0.000      56   Ba   0.000      89   Ac   0.000
#      24   Cr   0.000      57   La   0.000      90   Th   0.000
#      25   Mn   0.000      58   Ce   0.000      91   Pa   0.000
#      26   Fe   0.000      59   Pr   0.000      92   U    0.000
#      27   Co   0.000      60   Nd   0.000      93   Np   0.000
#      28   Ni   0.000      61   Pm   0.000      94   Pu   0.000
#      29   Cu   0.000      62   Sm   0.000      95   Am   0.000
#      30   Zn   0.000      63   Eu   0.000      96   Cm   0.000
#      31   Ga   0.000      64   Gd   0.000      97   Bk   0.000
#      32   Ge   0.000      65   Tb   0.000      98   Cf   0.000
#      33   As   0.000      66   Dy   0.000      99   Es   0.000
#
#
#              VARIATION GRID OF C/O - C - N ABUNDANCES (in number fraction)
#
#          FCO = log10(variation factor) of C/O ratio
#
#
#           FC = log10(variation factor) of carbon abundance
#
#
#           FN = log10(variation factor) of nitrogen abundance
#
#
#           FO = FC - FCO = log10(variation factor) of oxygen abundance 
#
#
#              TOTAL NUMBER OF TABLES:   mh x mco x mc x mn =     1
#
#
# TABLE      1     X=  0.700000     Y=  0.299950     Zref= 5.000000E-05     Z= 5.000000E-05     FCO=  0.000   FC=  0.000   FN=  0.000   FO=  0.000  C/O=   4.8978E-01
#
#     Zi   element     ni/nz             Xi/Z            ni/nH            Xi/XH             <Ai>
#
#      3     Li     9.323684E-09     3.757845E-09     3.897560E-14     2.684175E-13       6.941739
#      4     Be     1.859891E-08     9.731966E-09     7.774864E-14     6.951404E-13       9.012183
#      5     B      2.627166E-07     1.649247E-07     1.098229E-12     1.178033E-11      10.812224
#      6     C      2.451814E-01     1.709837E-01     1.024927E-06     1.221312E-05      12.011137
#      7     N      6.158679E-02     5.008508E-02     2.574499E-07     3.577506E-06      14.006763
#      8     O      5.005962E-01     4.650221E-01     2.092632E-06     3.321587E-05      15.999375
#      9     F      2.688361E-05     2.965430E-05     1.123810E-10     2.118165E-09      18.998405
#     10     Ne     8.904049E-02     1.042809E-01     3.722141E-07     7.448638E-06      20.171321
#     11     Na     1.583024E-03     2.113028E-03     6.617483E-09     1.509306E-07      22.989771
#     12     Mg     2.814411E-02     3.972350E-02     1.176502E-07     2.837393E-06      24.309551
#     13     Al     2.184679E-03     3.422452E-03     9.132566E-09     2.444608E-07      26.981541
#     14     Si     2.627166E-02     4.284049E-02     1.098229E-07     3.060035E-06      28.085611
#     15     P      2.086832E-04     3.752879E-04     8.723541E-10     2.680628E-08      30.973765
#     16     S      1.583024E-02     2.947097E-02     6.617483E-08     2.105069E-06      32.064451
#     17     Cl     2.341464E-04     4.820356E-04     9.787974E-10     3.443111E-08      35.457532
#     18     Ar     1.859891E-03     4.313819E-03     7.774864E-09     3.081300E-07      39.947662
#     19     K      9.758600E-05     2.215449E-04     4.079367E-10     1.582464E-08      39.101298
#     20     Ca     1.696632E-03     3.947852E-03     7.092393E-09     2.819894E-07      40.076544
#     21     Sc     1.094933E-06     2.857969E-06     4.577125E-12     2.041406E-10      44.955917
#     22     Ti     7.753317E-05     2.155336E-04     3.241103E-10     1.539526E-08      47.878925
#     23     V      7.404360E-06     2.189994E-05     3.095229E-11     1.564281E-09      50.941572
#     24     Cr     3.463279E-04     1.045572E-03     1.447747E-09     7.468374E-08      51.997623
#     25     Mn     1.817136E-04     5.796206E-04     7.596137E-10     4.140147E-08      54.938046
#     26     Fe     2.341464E-02     7.592291E-02     9.787974E-08     5.423065E-06      55.847311
#     27     Co     6.158679E-05     2.107320E-04     2.574499E-10     1.505229E-08      58.933189
#     28     Ni     1.316702E-03     4.487945E-03     5.504182E-09     3.205675E-07      58.705254
#     29     Cu     1.201123E-05     4.431668E-05     5.021030E-11     3.165477E-09      63.547234
#     30     Zn     2.947729E-05     1.119080E-04     1.232233E-10     7.993429E-09      65.386875
#     31     Ga     5.616782E-07     2.273583E-06     2.347971E-12     1.623988E-10      69.717234
#     32     Ge     1.903214E-06     8.025819E-06     7.955964E-12     5.732728E-10      72.630452
#     33     As     1.736151E-07     7.552272E-07     7.257596E-13     5.394480E-11      74.921600
#     34     Se     1.903214E-06     8.728593E-06     7.955964E-12     6.234709E-10      78.990277
#     35     Br     3.158548E-07     1.465389E-06     1.320361E-12     1.046706E-10      79.906523
#     36     Kr     1.511428E-06     7.353928E-06     6.318192E-12     5.252806E-10      83.800924
#     37     Rb     2.947729E-07     1.462765E-06     1.232233E-12     1.044832E-10      85.468072
#     38     Sr     6.910151E-07     3.515251E-06     2.888636E-12     2.510893E-10      87.616461
#     39     Y      1.287027E-07     6.643562E-07     5.380130E-13     4.745402E-11      88.905867
#     40     Zr     2.947729E-07     1.561272E-06     1.232233E-12     1.115194E-10      91.223746
#     41     Nb     1.947545E-08     1.050549E-07     8.141282E-14     7.503918E-12      92.906380
#     42     Mo     6.158679E-08     3.428800E-07     2.574499E-13     2.449143E-11      95.889605
#     43     Tc     0.000000E+00     0.000000E+00     0.000000E+00     0.000000E+00      96.906390
#     44     Ru     5.122566E-08     3.005927E-07     2.141375E-13     2.147091E-11     101.066641
#     45     Rh     9.758600E-09     5.830546E-08     4.079367E-14     4.164676E-12     102.905511
#     46     Pd     3.626499E-08     2.240978E-07     1.515978E-13     1.600699E-11     106.430727
#     47     Ag     6.448928E-09     4.038921E-08     2.695832E-14     2.884943E-12     107.868530
#     48     Cd     4.360011E-08     2.845931E-07     1.822606E-13     2.032808E-11     112.422659
#     49     In     3.384446E-08     2.256221E-07     1.414793E-13     1.611586E-11     114.818279
#     50     Sn     7.404360E-08     5.104404E-07     3.095229E-13     3.646003E-11     118.733825
#     51     Sb     7.404360E-09     5.234457E-08     3.095229E-14     3.738898E-12     121.758986
#     52     Te     1.287027E-07     9.537093E-07     5.380130E-13     6.812209E-11     127.627845
#     53     I      2.395452E-08     1.765011E-07     1.001366E-13     1.260722E-11     126.904474
#     54     Xe     1.094933E-07     8.346586E-07     4.577125E-13     5.961847E-11     131.292004
#     55     Cs     9.990507E-09     7.709272E-08     4.176311E-14     5.506623E-12     132.905440
#     56     Ba     9.990507E-08     7.965774E-07     4.176311E-13     5.689839E-11     137.327464
#     57     La     1.094933E-08     8.830597E-08     4.577125E-14     6.307569E-12     138.905511
#     58     Ce     2.814411E-08     2.289570E-07     1.176502E-13     1.635407E-11     140.114588
#     59     Pr     3.796536E-09     3.106028E-08     1.587058E-14     2.218591E-12     140.907700
#     60     Nd     2.341464E-08     1.960919E-07     9.787974E-14     1.400656E-11     144.241079
#     61     Pm     0.000000E+00     0.000000E+00     0.000000E+00     0.000000E+00     144.912790
#     62     Sm     7.576830E-09     6.614742E-08     3.167326E-14     4.724816E-12     150.363469
#     63     Eu     2.395452E-09     2.113547E-08     1.001366E-14     1.509676E-12     151.964200
#     64     Gd     9.758600E-09     8.909990E-08     4.079367E-14     6.364279E-12     157.255784
#     65     Tb     5.881492E-10     5.427051E-09     2.458628E-15     3.876465E-13     158.925390
#     66     Dy     1.022322E-08     9.645489E-08     4.273590E-14     6.889635E-12     162.500111
#     67     Ho     1.347372E-09     1.290242E-08     5.632391E-15     9.216015E-13     164.930360
#     68     Er     6.302133E-09     6.120210E-08     2.634467E-14     4.371578E-12     167.261394
#     69     Tm     7.404360E-10     7.262536E-09     3.095229E-15     5.187525E-13     168.934240
#     70     Yb     8.904049E-09     8.945589E-08     3.722141E-14     6.389706E-12     173.036747
#     71     Lu     8.503301E-10     8.638257E-09     3.554617E-15     6.170183E-13     174.966749
#     72     Hf     5.616782E-09     5.820847E-08     2.347971E-14     4.157748E-12     178.490703
#     73     Ta     5.488928E-10     5.766657E-09     2.294525E-15     4.119041E-13     180.947907
#     74     W      9.540860E-09     1.018390E-07     3.988346E-14     7.274215E-12     183.841519
#     75     Re     1.410872E-09     1.525392E-08     5.897838E-15     1.089566E-12     186.213359
#     76     Os     2.086832E-08     2.304976E-07     8.723541E-14     1.646411E-11     190.237368
#     77     Ir     1.658011E-08     1.850377E-07     6.930951E-14     1.321698E-11     192.216095
#     78     Pt     4.671835E-08     5.291572E-07     1.952958E-13     3.779694E-11     195.080617
#     79     Au     7.576830E-09     8.664890E-08     3.167326E-14     6.189207E-12     196.966550
#     80     Hg     9.990507E-09     1.163576E-07     4.176311E-14     8.311258E-12     200.596900
#     81     Tl     5.881492E-09     6.979384E-08     2.458628E-14     4.985274E-12     204.383823
#     82     Pb     6.599143E-08     7.939617E-07     2.758626E-13     5.671155E-11     207.218721
#     83     Bi     3.796536E-09     4.606554E-08     1.587058E-14     3.290396E-12     208.980400
#     84     Po     0.000000E+00     0.000000E+00     0.000000E+00     0.000000E+00     208.982440
#     85     At     0.000000E+00     0.000000E+00     0.000000E+00     0.000000E+00     209.987040
#     86     Rn     0.000000E+00     0.000000E+00     0.000000E+00     0.000000E+00     222.017610
#     87     Fr     0.000000E+00     0.000000E+00     0.000000E+00     0.000000E+00     223.019760
#     88     Ra     0.000000E+00     0.000000E+00     0.000000E+00     0.000000E+00     226.025440
#     89     Ac     0.000000E+00     0.000000E+00     0.000000E+00     0.000000E+00     227.027770
#     90     Th     9.105159E-10     1.226676E-08     3.806211E-15     8.761971E-13     232.038080
#     91     Pa     0.000000E+00     0.000000E+00     0.000000E+00     0.000000E+00     231.035900
#     92     U      2.341464E-10     3.235939E-09     9.787974E-16     2.311385E-13     238.028942
#     93     Np     0.000000E+00     0.000000E+00     0.000000E+00     0.000000E+00     237.048190
#     94     Pu     0.000000E+00     0.000000E+00     0.000000E+00     0.000000E+00     244.064240
#     95     Am     0.000000E+00     0.000000E+00     0.000000E+00     0.000000E+00     243.061390
#     96     Cm     0.000000E+00     0.000000E+00     0.000000E+00     0.000000E+00     247.070380
#     97     Bk     0.000000E+00     0.000000E+00     0.000000E+00     0.000000E+00     247.070320
#     98     Cf     0.000000E+00     0.000000E+00     0.000000E+00     0.000000E+00     251.079610
#     99     Es     0.000000E+00     0.000000E+00     0.000000E+00     0.000000E+00     254.088050
#
#
4.500  -0.4838  -0.4833  -0.4826  -0.4818  -0.4808  -0.4796  -0.4781  -0.4762  -0.4739  -0.4712  -0.4679  -0.4640  -0.4593  -0.4537  -0.4471  -0.4393  -0.4299  -0.4189  -0.4062  -0.3917  -0.3755  -0.3577  -0.3385  -0.3182  -0.2970  -0.2749  -0.2517  -0.2274  -0.2016  -0.1742  -0.1446  -0.1125  -0.0772  -0.0387   0.0038   0.0505   0.1017   0.1576   0.2183   0.2839   0.3542   0.4294   0.5091   0.5929   0.6805   0.7715   0.8656   0.9621   1.0609   1.1616   1.2639   1.3676   1.4726   1.5788   1.6859   1.7939   1.9027   2.0122   2.1223   2.2330   2.3440   2.4554   2.5672   2.6795   2.7918   2.9043   3.0173   3.1305   3.2439   3.3572   3.4704   3.5830   3.6948   3.8052   3.9139   4.0201   4.1240   4.2250   4.3223   4.4160   4.5054   4.5905   4.6711   4.7467   4.8170   4.8825   4.9423   4.9971   5.0474   5.0928   5.1339
4.450  -0.4787  -0.4785  -0.4782  -0.4779  -0.4775  -0.4769  -0.4761  -0.4749  -0.4734  -0.4713  -0.4687  -0.4655  -0.4615  -0.4566  -0.4507  -0.4438  -0.4359  -0.4268  -0.4166  -0.4052  -0.3926  -0.3788  -0.3638  -0.3478  -0.3306  -0.3122  -0.2925  -0.2714  -0.2485  -0.2235  -0.1962  -0.1660  -0.1325  -0.0953  -0.0541  -0.0087   0.0415   0.0964   0.1562   0.2210   0.2907   0.3653   0.4445   0.5280   0.6154   0.7063   0.8002   0.8967   0.9955   1.0963   1.1988   1.3026   1.4076   1.5137   1.6208   1.7287   1.8371   1.9462   2.0558   2.1659   2.2764   2.3872   2.4982   2.6095   2.7210   2.8328   2.9443   3.0560   3.1674   3.2786   3.3892   3.4987   3.6071   3.7139   3.8189   3.9216   4.0214   4.1182   4.2115   4.3011   4.3863   4.4670   4.5434   4.6148   4.6816   4.7434   4.8005   4.8532   4.9014   4.9456   4.9863
4.400  -0.4866  -0.4879  -0.4891  -0.4900  -0.4905  -0.4906  -0.4901  -0.4889  -0.4871  -0.4846  -0.4814  -0.4774  -0.4727  -0.4672  -0.4610  -0.4539  -0.4460  -0.4373  -0.4279  -0.4177  -0.4066  -0.3947  -0.3819  -0.3681  -0.3533  -0.3371  -0.3195  -0.3001  -0.2787  -0.2549  -0.2283  -0.1986  -0.1654  -0.1284  -0.0873  -0.0417   0.0084   0.0633   0.1232   0.1879   0.2577   0.3323   0.4114   0.4948   0.5820   0.6727   0.7664   0.8626   0.9610   1.0614   1.1634   1.2667   1.3711   1.4765   1.5827   1.6895   1.7969   1.9046   2.0127   2.1209   2.2294   2.3380   2.4465   2.5551   2.6636   2.7721   2.8805   2.9886   3.0963   3.2037   3.3104   3.4162   3.5205   3.6229   3.7231   3.8204   3.9146   4.0050   4.0914   4.1734   4.2509   4.3238   4.3918   4.4554   4.5143   4.5688   4.6193   4.6660   4.7091   4.7490   4.7859
4.350  -0.5042  -0.5039  -0.5033  -0.5024  -0.5013  -0.4997  -0.4977  -0.4953  -0.4924  -0.4891  -0.4853  -0.4810  -0.4762  -0.4711  -0.4654  -0.4593  -0.4528  -0.4457  -0.4381  -0.4298  -0.4208  -0.4109  -0.3999  -0.3877  -0.3741  -0.3589  -0.3418  -0.3225  -0.3008  -0.2763  -0.2487  -0.2177  -0.1831  -0.1446  -0.1018  -0.0547  -0.0030   0.0534   0.1146   0.1805   0.2512   0.3266   0.4063   0.4900   0.5772   0.6677   0.7609   0.8565   0.9542   1.0534   1.1540   1.2558   1.3585   1.4618   1.5655   1.6697   1.7742   1.8789   1.9837   2.0886   2.1936   2.2988   2.4042   2.5097   2.6154   2.7212   2.8269   2.9326   3.0377   3.1420   3.2449   3.3461   3.4449   3.5409   3.6335   3.7223   3.8069   3.8871   3.9627   4.0336   4.0999   4.1616   4.2189   4.2720   4.3213   4.3668   4.4091   4.4484   4.4850   4.5191   4.5512
4.300  -0.5061  -0.5052  -0.5041  -0.5028  -0.5012  -0.4992  -0.4971  -0.4947  -0.4920  -0.4890  -0.4857  -0.4821  -0.4784  -0.4744  -0.4701  -0.4655  -0.4605  -0.4550  -0.4488  -0.4419  -0.4339  -0.4247  -0.4143  -0.4023  -0.3886  -0.3728  -0.3547  -0.3342  -0.3109  -0.2844  -0.2548  -0.2216  -0.1847  -0.1437  -0.0986  -0.0494   0.0044   0.0626   0.1254   0.1927   0.2644   0.3404   0.4204   0.5040   0.5910   0.6808   0.7732   0.8677   0.9639   1.0614   1.1601   1.2595   1.3596   1.4602   1.5611   1.6623   1.7638   1.8657   1.9680   2.0708   2.1739   2.2777   2.3818   2.4861   2.5905   2.6945   2.7978   2.8999   3.0004   3.0986   3.1941   3.2863   3.3749   3.4593   3.5394   3.6150   3.6858   3.7521   3.8138   3.8710   3.9242   3.9734   4.0190   4.0613   4.1006   4.1372   4.1715   4.2036   4.2338   4.2626   4.2899
4.250  -0.5054  -0.5044  -0.5032  -0.5018  -0.5003  -0.4987  -0.4968  -0.4949  -0.4928  -0.4906  -0.4883  -0.4858  -0.4832  -0.4804  -0.4772  -0.4736  -0.4695  -0.4647  -0.4590  -0.4522  -0.4443  -0.4349  -0.4238  -0.4110  -0.3961  -0.3789  -0.3590  -0.3363  -0.3104  -0.2813  -0.2487  -0.2124  -0.1723  -0.1281  -0.0799  -0.0274   0.0293   0.0904   0.1558   0.2254   0.2990   0.3763   0.4570   0.5408   0.6272   0.7160   0.8067   0.8990   0.9928   1.0878   1.1838   1.2810   1.3790   1.4779   1.5777   1.6784   1.7798   1.8817   1.9840   2.0867   2.1894   2.2918   2.3934   2.4942   2.5936   2.6913   2.7868   2.8794   2.9687   3.0542   3.1357   3.2129   3.2855   3.3536   3.4171   3.4761   3.5308   3.5816   3.6286   3.6721   3.7124   3.7499   3.7848   3.8175   3.8481   3.8770   3.9044   3.9306   3.9558   3.9801   4.0039
4.200  -0.5062  -0.5054  -0.5045  -0.5036  -0.5025  -0.5014  -0.5003  -0.4990  -0.4976  -0.4962  -0.4946  -0.4928  -0.4908  -0.4884  -0.4855  -0.4821  -0.4779  -0.4728  -0.4666  -0.4593  -0.4504  -0.4399  -0.4275  -0.4130  -0.3960  -0.3765  -0.3541  -0.3284  -0.2994  -0.2669  -0.2308  -0.1909  -0.1471  -0.0996  -0.0482   0.0072   0.0664   0.1294   0.1961   0.2664   0.3402   0.4171   0.4972   0.5801   0.6658   0.7538   0.8443   0.9370   1.0315   1.1277   1.2254   1.3243   1.4241   1.5247   1.6257   1.7268   1.8279   1.9287   2.0289   2.1278   2.2255   2.3214   2.4150   2.5058   2.5931   2.6772   2.7573   2.8332   2.9046   2.9716   3.0341   3.0922   3.1460   3.1959   3.2420   3.2847   3.3242   3.3608   3.3948   3.4266   3.4563   3.4843   3.5108   3.5360   3.5601   3.5834   3.6060   3.6280   3.6498   3.6714   3.6929
4.150  -0.5057  -0.5052  -0.5046  -0.5040  -0.5033  -0.5026  -0.5018  -0.5009  -0.4999  -0.4987  -0.4973  -0.4955  -0.4934  -0.4908  -0.4876  -0.4838  -0.4791  -0.4732  -0.4662  -0.4577  -0.4476  -0.4356  -0.4215  -0.4050  -0.3858  -0.3639  -0.3389  -0.3109  -0.2794  -0.2444  -0.2058  -0.1635  -0.1174  -0.0675  -0.0136   0.0443   0.1063   0.1723   0.2425   0.3166   0.3944   0.4758   0.5605   0.6481   0.7383   0.8307   0.9250   1.0207   1.1177   1.2156   1.3138   1.4124   1.5108   1.6087   1.7058   1.8018   1.8961   1.9882   2.0780   2.1650   2.2486   2.3283   2.4042   2.4759   2.5433   2.6063   2.6644   2.7188   2.7690   2.8155   2.8584   2.8980   2.9347   2.9686   3.0001   3.0294   3.0569   3.0827   3.1071   3.1303   3.1525   3.1740   3.1948   3.2151   3.2351   3.2550   3.2749   3.2949   3.3151   3.3356   3.3566
4.100  -0.5086  -0.5083  -0.5081  -0.5077  -0.5074  -0.5069  -0.5064  -0.5057  -0.5049  -0.5039  -0.5026  -0.5011  -0.4991  -0.4967  -0.4937  -0.4901  -0.4858  -0.4803  -0.4736  -0.4655  -0.4557  -0.4439  -0.4298  -0.4131  -0.3935  -0.3705  -0.3441  -0.3138  -0.2794  -0.2409  -0.1977  -0.1498  -0.0973  -0.0401   0.0216   0.0878   0.1581   0.2324   0.3104   0.3917   0.4761   0.5630   0.6523   0.7434   0.8359   0.9294   1.0235   1.1178   1.2119   1.3053   1.3978   1.4889   1.5779   1.6646   1.7487   1.8292   1.9064   1.9797   2.0488   2.1134   2.1740   2.2304   2.2826   2.3309   2.3751   2.4162   2.4541   2.4891   2.5215   2.5515   2.5795   2.6048   2.6293   2.6524   2.6744   2.6954   2.7156   2.7352   2.7542   2.7730   2.7916   2.8101   2.8286   2.8473   2.8663   2.8856   2.9054   2.9258   2.9468   2.9685   2.9909
4.050  -0.5099  -0.5102  -0.5106  -0.5111  -0.5116  -0.5121  -0.5127  -0.5133  -0.5139  -0.5144  -0.5146  -0.5145  -0.5139  -0.5127  -0.5107  -0.5076  -0.5031  -0.4972  -0.4897  -0.4798  -0.4675  -0.4525  -0.4345  -0.4132  -0.3884  -0.3598  -0.3272  -0.2905  -0.2495  -0.2040  -0.1542  -0.0997  -0.0405   0.0230   0.0908   0.1625   0.2378   0.3164   0.3978   0.4813   0.5669   0.6538   0.7415   0.8293   0.9169   1.0037   1.0891   1.1727   1.2538   1.3320   1.4070   1.4781   1.5456   1.6091   1.6684   1.7236   1.7750   1.8225   1.8663   1.9065   1.9437   1.9781   2.0098   2.0393   2.0662   2.0916   2.1155   2.1379   2.1591   2.1794   2.1990   2.2171   2.2353   2.2531   2.2707   2.2883   2.3057   2.3233   2.3410   2.3577   2.3759   2.3946   2.4138   2.4336   2.4541   2.4753   2.4973   2.5201   2.5439   2.5685   2.5940
4.000  -0.5323  -0.5345  -0.5365  -0.5383  -0.5398  -0.5410  -0.5417  -0.5420  -0.5418  -0.5411  -0.5397  -0.5376  -0.5347  -0.5309  -0.5260  -0.5200  -0.5125  -0.5033  -0.4922  -0.4790  -0.4637  -0.4451  -0.4235  -0.3986  -0.3700  -0.3377  -0.3014  -0.2609  -0.2162  -0.1675  -0.1144  -0.0571   0.0039   0.0690   0.1376   0.2090   0.2828   0.3583   0.4348   0.5116   0.5880   0.6631   0.7365   0.8076   0.8759   0.9406   1.0022   1.0601   1.1141   1.1645   1.2113   1.2545   1.2943   1.3312   1.3652   1.3964   1.4257   1.4529   1.4783   1.5023   1.5245   1.5458   1.5662   1.5858   1.6046   1.6231   1.6406   1.6584   1.6759   1.6935   1.7109   1.7286   1.7458   1.7639   1.7824   1.8012   1.8204   1.8403   1.8607   1.8818   1.9026   1.9250   1.9482   1.9722   1.9971   2.0228   2.0494   2.0770   2.1037   2.1330   2.1633
3.950  -0.5522  -0.5520  -0.5518  -0.5513  -0.5507  -0.5498  -0.5487  -0.5473  -0.5455  -0.5432  -0.5404  -0.5369  -0.5326  -0.5273  -0.5210  -0.5133  -0.5042  -0.4933  -0.4805  -0.4654  -0.4479  -0.4282  -0.4050  -0.3788  -0.3496  -0.3170  -0.2811  -0.2421  -0.2000  -0.1549  -0.1072  -0.0572  -0.0053   0.0480   0.1020   0.1564   0.2104   0.2634   0.3148   0.3642   0.4112   0.4557   0.4976   0.5368   0.5733   0.6074   0.6392   0.6686   0.6963   0.7222   0.7466   0.7692   0.7912   0.8120   0.8321   0.8514   0.8703   0.8889   0.9072   0.9253   0.9434   0.9616   0.9799   0.9985   1.0168   1.0360   1.0555   1.0755   1.0960   1.1171   1.1381   1.1601   1.1828   1.2060   1.2298   1.2543   1.2788   1.3046   1.3310   1.3582   1.3860   1.4146   1.4440   1.4733   1.5041   1.5358   1.5682   1.6016   1.6357   1.6707   1.7054
3.900  -0.5532  -0.5526  -0.5520  -0.5512  -0.5503  -0.5491  -0.5477  -0.5459  -0.5438  -0.5412  -0.5380  -0.5341  -0.5295  -0.5239  -0.5174  -0.5096  -0.5007  -0.4904  -0.4787  -0.4656  -0.4511  -0.4351  -0.4177  -0.3996  -0.3799  -0.3593  -0.3382  -0.3166  -0.2948  -0.2733  -0.2520  -0.2312  -0.2109  -0.1914  -0.1727  -0.1546  -0.1371  -0.1203  -0.1042  -0.0886  -0.0733  -0.0585  -0.0438  -0.0294  -0.0151  -0.0007   0.0137   0.0283   0.0431   0.0582   0.0737   0.0897   0.1063   0.1233   0.1410   0.1595   0.1785   0.1982   0.2187   0.2400   0.2621   0.2844   0.3080   0.3323   0.3572   0.3830   0.4092   0.4361   0.4637   0.4919   0.5206   0.5499   0.5798   0.6103   0.6413   0.6730   0.7046   0.7374   0.7708   0.8048   0.8396   0.8744   0.9103   0.9468   0.9840   1.0219   1.0604   1.0992   1.1390   1.1794   1.2203
3.850  -0.5537  -0.5536  -0.5534  -0.5532  -0.5530  -0.5529  -0.5527  -0.5526  -0.5524  -0.5523  -0.5523  -0.5523  -0.5525  -0.5529  -0.5536  -0.5549  -0.5567  -0.5594  -0.5629  -0.5674  -0.5731  -0.5798  -0.5877  -0.5967  -0.6066  -0.6174  -0.6289  -0.6412  -0.6536  -0.6663  -0.6788  -0.6913  -0.7037  -0.7153  -0.7262  -0.7362  -0.7452  -0.7530  -0.7594  -0.7643  -0.7675  -0.7688  -0.7684  -0.7661  -0.7619  -0.7556  -0.7472  -0.7368  -0.7245  -0.7103  -0.6942  -0.6763  -0.6568  -0.6355  -0.6127  -0.5885  -0.5629  -0.5361  -0.5082  -0.4793  -0.4494  -0.4187  -0.3872  -0.3550  -0.3220  -0.2884  -0.2545  -0.2199  -0.1848  -0.1493  -0.1135  -0.0770  -0.0401  -0.0028   0.0343   0.0726   0.1114   0.1506   0.1903   0.2305   0.2711   0.3122   0.3538   0.3957   0.4382   0.4812   0.5246   0.5685   0.6121   0.6568   0.7018
3.800  -0.5763  -0.5815  -0.5877  -0.5951  -0.6039  -0.6142  -0.6261  -0.6398  -0.6554  -0.6727  -0.6920  -0.7130  -0.7358  -0.7602  -0.7861  -0.8135  -0.8421  -0.8719  -0.9026  -0.9342  -0.9666  -0.9995  -1.0329  -1.0666  -1.1005  -1.1344  -1.1682  -1.2018  -1.2349  -1.2676  -1.2995  -1.3304  -1.3603  -1.3888  -1.4158  -1.4410  -1.4642  -1.4851  -1.5035  -1.5192  -1.5319  -1.5414  -1.5476  -1.5503  -1.5495  -1.5456  -1.5378  -1.5267  -1.5124  -1.4950  -1.4747  -1.4518  -1.4265  -1.3991  -1.3697  -1.3386  -1.3060  -1.2723  -1.2373  -1.2013  -1.1645  -1.1269  -1.0887  -1.0502  -1.0109  -0.9711  -0.9310  -0.8904  -0.8494  -0.8082  -0.7665  -0.7244  -0.6821  -0.6395  -0.5965  -0.5532  -0.5096  -0.4656  -0.4212  -0.3765  -0.3316  -0.2862  -0.2406  -0.1947  -0.1485  -0.1020  -0.0553  -0.0083   0.0384   0.0858   0.1333
3.750  -0.7746  -0.8036  -0.8344  -0.8669  -0.9010  -0.9365  -0.9732  -1.0111  -1.0500  -1.0898  -1.1303  -1.1716  -1.2134  -1.2557  -1.2984  -1.3414  -1.3846  -1.4281  -1.4716  -1.5152  -1.5588  -1.6023  -1.6457  -1.6889  -1.7318  -1.7744  -1.8166  -1.8582  -1.8992  -1.9394  -1.9788  -2.0170  -2.0540  -2.0894  -2.1232  -2.1549  -2.1842  -2.2109  -2.2347  -2.2551  -2.2719  -2.2849  -2.2939  -2.2986  -2.2991  -2.2953  -2.2873  -2.2753  -2.2595  -2.2400  -2.2174  -2.1917  -2.1634  -2.1327  -2.1001  -2.0655  -2.0293  -1.9917  -1.9529  -1.9132  -1.8727  -1.8313  -1.7893  -1.7467  -1.7036  -1.6601  -1.6162  -1.5720  -1.5275  -1.4827  -1.4375  -1.3922  -1.3465  -1.3007  -1.2545  -1.2082  -1.1616  -1.1148  -1.0680  -1.0208  -0.9735  -0.9259  -0.8782  -0.8304  -0.7824  -0.7343  -0.6861  -0.6379  -0.5896  -0.5413  -0.4931
3.700  -1.3213  -1.3662  -1.4115  -1.4571  -1.5030  -1.5491  -1.5954  -1.6419  -1.6884  -1.7351  -1.7818  -1.8285  -1.8753  -1.9220  -1.9686  -2.0151  -2.0615  -2.1078  -2.1539  -2.1997  -2.2454  -2.2907  -2.3357  -2.3804  -2.4246  -2.4683  -2.5115  -2.5541  -2.5959  -2.6369  -2.6769  -2.7158  -2.7533  -2.7894  -2.8237  -2.8560  -2.8861  -2.9136  -2.9382  -2.9596  -2.9775  -2.9917  -3.0019  -3.0080  -3.0100  -3.0077  -3.0013  -2.9909  -2.9767  -2.9588  -2.9376  -2.9132  -2.8861  -2.8563  -2.8243  -2.7902  -2.7544  -2.7170  -2.6783  -2.6384  -2.5975  -2.5557  -2.5132  -2.4700  -2.4262  -2.3819  -2.3372  -2.2921  -2.2467  -2.2009  -2.1547  -2.1085  -2.0619  -2.0150  -1.9679  -1.9205  -1.8730  -1.8253  -1.7774  -1.7294  -1.6812  -1.6329  -1.5844  -1.5359  -1.4873  -1.4386  -1.3899  -1.3411  -1.2924  -1.2437  -1.1950
3.690  -1.4601  -1.5062  -1.5525  -1.5990  -1.6457  -1.6925  -1.7394  -1.7863  -1.8333  -1.8803  -1.9273  -1.9742  -2.0211  -2.0678  -2.1144  -2.1609  -2.2073  -2.2534  -2.2993  -2.3450  -2.3904  -2.4355  -2.4802  -2.5245  -2.5684  -2.6118  -2.6545  -2.6967  -2.7381  -2.7786  -2.8182  -2.8566  -2.8937  -2.9294  -2.9633  -2.9953  -3.0251  -3.0523  -3.0768  -3.0982  -3.1162  -3.1306  -3.1412  -3.1478  -3.1504  -3.1488  -3.1432  -3.1337  -3.1203  -3.1034  -3.0830  -3.0595  -3.0332  -3.0042  -2.9728  -2.9394  -2.9042  -2.8673  -2.8290  -2.7896  -2.7490  -2.7076  -2.6654  -2.6224  -2.5789  -2.5349  -2.4904  -2.4455  -2.4002  -2.3546  -2.3086  -2.2624  -2.2159  -2.1692  -2.1222  -2.0751  -2.0276  -1.9800  -1.9321  -1.8841  -1.8359  -1.7876  -1.7392  -1.6906  -1.6419  -1.5932  -1.5444  -1.4955  -1.4466  -1.3977  -1.3488
3.680  -1.6054  -1.6523  -1.6993  -1.7463  -1.7935  -1.8407  -1.8879  -1.9351  -1.9823  -2.0294  -2.0764  -2.1233  -2.1701  -2.2167  -2.2632  -2.3094  -2.3555  -2.4013  -2.4469  -2.4922  -2.5371  -2.5818  -2.6260  -2.6698  -2.7132  -2.7560  -2.7982  -2.8397  -2.8805  -2.9204  -2.9594  -2.9972  -3.0338  -3.0689  -3.1024  -3.1339  -3.1634  -3.1904  -3.2147  -3.2361  -3.2542  -3.2689  -3.2799  -3.2871  -3.2903  -3.2896  -3.2850  -3.2765  -3.2642  -3.2483  -3.2291  -3.2066  -3.1812  -3.1531  -3.1226  -3.0900  -3.0554  -3.0191  -2.9814  -2.9424  -2.9023  -2.8613  -2.8194  -2.7768  -2.7336  -2.6898  -2.6456  -2.6009  -2.5558  -2.5103  -2.4646  -2.4185  -2.3721  -2.3255  -2.2786  -2.2315  -2.1841  -2.1365  -2.0888  -2.0408  -1.9926  -1.9442  -1.8957  -1.8470  -1.7982  -1.7493  -1.7003  -1.6512  -1.6021  -1.5528  -1.5033
3.670  -1.7564  -1.8037  -1.8511  -1.8984  -1.9458  -1.9932  -2.0405  -2.0877  -2.1348  -2.1819  -2.2288  -2.2755  -2.3221  -2.3684  -2.4146  -2.4605  -2.5061  -2.5515  -2.5966  -2.6414  -2.6858  -2.7298  -2.7734  -2.8165  -2.8592  -2.9013  -2.9428  -2.9836  -3.0237  -3.0629  -3.1011  -3.1383  -3.1742  -3.2087  -3.2416  -3.2727  -3.3017  -3.3284  -3.3527  -3.3740  -3.3923  -3.4074  -3.4189  -3.4267  -3.4309  -3.4312  -3.4276  -3.4203  -3.4093  -3.3947  -3.3767  -3.3555  -3.3313  -3.3043  -3.2747  -3.2430  -3.2092  -3.1736  -3.1365  -3.0980  -3.0584  -3.0178  -2.9763  -2.9340  -2.8911  -2.8476  -2.8036  -2.7591  -2.7142  -2.6689  -2.6233  -2.5773  -2.5311  -2.4845  -2.4377  -2.3906  -2.3433  -2.2957  -2.2478  -2.1998  -2.1515  -2.1030  -2.0544  -2.0055  -1.9565  -1.9073  -1.8579  -1.8084  -1.7588  -1.7088  -1.6586
3.660  -1.9123  -1.9599  -2.0073  -2.0548  -2.1022  -2.1495  -2.1967  -2.2438  -2.2907  -2.3375  -2.3841  -2.4305  -2.4767  -2.5226  -2.5683  -2.6137  -2.6589  -2.7037  -2.7482  -2.7923  -2.8360  -2.8793  -2.9221  -2.9645  -3.0064  -3.0477  -3.0883  -3.1283  -3.1676  -3.2060  -3.2434  -3.2798  -3.3150  -3.3488  -3.3811  -3.4117  -3.4403  -3.4668  -3.4908  -3.5123  -3.5308  -3.5462  -3.5584  -3.5671  -3.5723  -3.5737  -3.5715  -3.5656  -3.5561  -3.5430  -3.5264  -3.5066  -3.4837  -3.4580  -3.4296  -3.3989  -3.3660  -3.3312  -3.2948  -3.2570  -3.2179  -3.1777  -3.1366  -3.0947  -3.0521  -3.0089  -2.9651  -2.9208  -2.8761  -2.8310  -2.7855  -2.7396  -2.6934  -2.6469  -2.6001  -2.5529  -2.5055  -2.4578  -2.4099  -2.3616  -2.3131  -2.2643  -2.2153  -2.1661  -2.1166  -2.0669  -2.0170  -1.9668  -1.9162  -1.8652  -1.8137
3.650  -2.0726  -2.1201  -2.1675  -2.2149  -2.2621  -2.3091  -2.3561  -2.4028  -2.4494  -2.4958  -2.5419  -2.5879  -2.6335  -2.6789  -2.7240  -2.7688  -2.8133  -2.8574  -2.9012  -2.9445  -2.9875  -3.0300  -3.0720  -3.1135  -3.1545  -3.1949  -3.2347  -3.2737  -3.3121  -3.3495  -3.3861  -3.4217  -3.4561  -3.4892  -3.5208  -3.5509  -3.5791  -3.6053  -3.6293  -3.6508  -3.6697  -3.6856  -3.6985  -3.7082  -3.7144  -3.7172  -3.7165  -3.7122  -3.7043  -3.6928  -3.6780  -3.6598  -3.6385  -3.6142  -3.5871  -3.5576  -3.5258  -3.4920  -3.4564  -3.4193  -3.3808  -3.3412  -3.3005  -3.2590  -3.2167  -3.1737  -3.1302  -3.0861  -3.0415  -2.9964  -2.9510  -2.9051  -2.8589  -2.8123  -2.7654  -2.7181  -2.6704  -2.6225  -2.5742  -2.5256  -2.4767  -2.4274  -2.3778  -2.3279  -2.2777  -2.2271  -2.1762  -2.1248  -2.0729  -2.0203  -1.9669
3.640  -2.2370  -2.2843  -2.3315  -2.3785  -2.4254  -2.4721  -2.5186  -2.5649  -2.6110  -2.6569  -2.7024  -2.7477  -2.7928  -2.8375  -2.8818  -2.9259  -2.9696  -3.0129  -3.0558  -3.0983  -3.1404  -3.1820  -3.2231  -3.2637  -3.3037  -3.3431  -3.3819  -3.4200  -3.4574  -3.4939  -3.5296  -3.5642  -3.5978  -3.6301  -3.6611  -3.6906  -3.7184  -3.7444  -3.7683  -3.7900  -3.8092  -3.8257  -3.8395  -3.8502  -3.8577  -3.8620  -3.8629  -3.8603  -3.8543  -3.8447  -3.8318  -3.8154  -3.7959  -3.7732  -3.7477  -3.7196  -3.6891  -3.6564  -3.6219  -3.5857  -3.5480  -3.5090  -3.4690  -3.4280  -3.3861  -3.3435  -3.3002  -3.2563  -3.2118  -3.1669  -3.1215  -3.0756  -3.0293  -2.9825  -2.9354  -2.8878  -2.8398  -2.7914  -2.7426  -2.6933  -2.6437  -2.5936  -2.5431  -2.4921  -2.4406  -2.3887  -2.3362  -2.2830  -2.2291  -2.1742  -2.1181
3.630  -2.4047  -2.4517  -2.4985  -2.5451  -2.5915  -2.6377  -2.6837  -2.7294  -2.7748  -2.8199  -2.8648  -2.9093  -2.9536  -2.9975  -3.0410  -3.0841  -3.1269  -3.1693  -3.2113  -3.2528  -3.2938  -3.3344  -3.3745  -3.4141  -3.4531  -3.4915  -3.5292  -3.5663  -3.6027  -3.6382  -3.6729  -3.7067  -3.7394  -3.7710  -3.8014  -3.8303  -3.8577  -3.8834  -3.9073  -3.9291  -3.9487  -3.9659  -3.9805  -3.9924  -4.0013  -4.0071  -4.0097  -4.0089  -4.0048  -3.9972  -3.9863  -3.9719  -3.9543  -3.9335  -3.9098  -3.8833  -3.8543  -3.8230  -3.7896  -3.7545  -3.7178  -3.6796  -3.6403  -3.5998  -3.5584  -3.5161  -3.4731  -3.4294  -3.3850  -3.3401  -3.2946  -3.2485  -3.2019  -3.1548  -3.1072  -3.0590  -3.0104  -2.9611  -2.9114  -2.8611  -2.8102  -2.7588  -2.7067  -2.6540  -2.6007  -2.5466  -2.4918  -2.4360  -2.3792  -2.3211  -2.2616
3.620  -2.5754  -2.6219  -2.6682  -2.7142  -2.7600  -2.8055  -2.8508  -2.8957  -2.9404  -2.9847  -3.0287  -3.0724  -3.1157  -3.1587  -3.2012  -3.2434  -3.2851  -3.3264  -3.3673  -3.4078  -3.4477  -3.4872  -3.5262  -3.5646  -3.6025  -3.6398  -3.6764  -3.7124  -3.7477  -3.7823  -3.8160  -3.8488  -3.8807  -3.9115  -3.9412  -3.9696  -3.9967  -4.0222  -4.0460  -4.0680  -4.0880  -4.1058  -4.1213  -4.1342  -4.1444  -4.1517  -4.1559  -4.1570  -4.1548  -4.1493  -4.1404  -4.1281  -4.1125  -4.0937  -4.0719  -4.0473  -4.0200  -3.9903  -3.9585  -3.9246  -3.8891  -3.8519  -3.8134  -3.7737  -3.7328  -3.6910  -3.6483  -3.6047  -3.5604  -3.5153  -3.4695  -3.4231  -3.3759  -3.3282  -3.2797  -3.2306  -3.1807  -3.1302  -3.0789  -3.0269  -2.9741  -2.9205  -2.8661  -2.8109  -2.7548  -2.6977  -2.6396  -2.5803  -2.5198  -2.4579  -2.3945
3.610  -2.7488  -2.7946  -2.8402  -2.8855  -2.9305  -2.9752  -3.0196  -3.0637  -3.1075  -3.1508  -3.1939  -3.2365  -3.2788  -3.3207  -3.3621  -3.4032  -3.4438  -3.4840  -3.5237  -3.5629  -3.6017  -3.6400  -3.6777  -3.7150  -3.7516  -3.7877  -3.8232  -3.8581  -3.8923  -3.9257  -3.9584  -3.9903  -4.0213  -4.0514  -4.0804  -4.1082  -4.1349  -4.1601  -4.1839  -4.2060  -4.2263  -4.2447  -4.2609  -4.2747  -4.2861  -4.2948  -4.3005  -4.3033  -4.3029  -4.2993  -4.2924  -4.2821  -4.2686  -4.2519  -4.2322  -4.2096  -4.1842  -4.1564  -4.1263  -4.0940  -4.0599  -4.0240  -3.9865  -3.9477  -3.9075  -3.8662  -3.8238  -3.7803  -3.7359  -3.6906  -3.6443  -3.5972  -3.5492  -3.5003  -3.4505  -3.3997  -3.3481  -3.2955  -3.2418  -3.1872  -3.1316  -3.0749  -3.0172  -2.9584  -2.8985  -2.8375  -2.7754  -2.7121  -2.6476  -2.5818  -2.5147
3.600  -2.9242  -2.9692  -3.0140  -3.0584  -3.1025  -3.1463  -3.1898  -3.2328  -3.2755  -3.3178  -3.3598  -3.4013  -3.4424  -3.4831  -3.5234  -3.5632  -3.6026  -3.6415  -3.6799  -3.7179  -3.7554  -3.7924  -3.8289  -3.8648  -3.9003  -3.9351  -3.9694  -4.0030  -4.0361  -4.0684  -4.1001  -4.1309  -4.1610  -4.1902  -4.2185  -4.2458  -4.2719  -4.2968  -4.3204  -4.3425  -4.3630  -4.3817  -4.3984  -4.4130  -4.4252  -4.4349  -4.4419  -4.4460  -4.4472  -4.4452  -4.4400  -4.4316  -4.4201  -4.4054  -4.3878  -4.3672  -4.3440  -4.3181  -4.2899  -4.2595  -4.2270  -4.1926  -4.1565  -4.1187  -4.0794  -4.0387  -3.9966  -3.9533  -3.9086  -3.8628  -3.8158  -3.7675  -3.7181  -3.6674  -3.6155  -3.5624  -3.5080  -3.4524  -3.3954  -3.3372  -3.2776  -3.2169  -3.1549  -3.0918  -3.0276  -2.9624  -2.8962  -2.8291  -2.7612  -2.6924  -2.6229
3.590  -3.1012  -3.1453  -3.1891  -3.2325  -3.2756  -3.3183  -3.3606  -3.4025  -3.4441  -3.4852  -3.5259  -3.5662  -3.6060  -3.6454  -3.6844  -3.7229  -3.7610  -3.7985  -3.8357  -3.8723  -3.9084  -3.9441  -3.9792  -4.0139  -4.0480  -4.0815  -4.1145  -4.1469  -4.1787  -4.2099  -4.2405  -4.2703  -4.2994  -4.3277  -4.3552  -4.3817  -4.4072  -4.4316  -4.4548  -4.4766  -4.4970  -4.5157  -4.5325  -4.5474  -4.5600  -4.5703  -4.5780  -4.5830  -4.5851  -4.5843  -4.5804  -4.5735  -4.5636  -4.5507  -4.5350  -4.5164  -4.4952  -4.4714  -4.4452  -4.4168  -4.3862  -4.3535  -4.3188  -4.2823  -4.2440  -4.2039  -4.1622  -4.1188  -4.0737  -4.0270  -3.9787  -3.9287  -3.8771  -3.8239  -3.7690  -3.7124  -3.6542  -3.5944  -3.5331  -3.4703  -3.4062  -3.3409  -3.2744  -3.2071  -3.1389  -3.0701  -3.0009  -2.9312  -2.8613  -2.7912  -2.7210
3.580  -3.2793  -3.3223  -3.3650  -3.4072  -3.4491  -3.4906  -3.5317  -3.5723  -3.6126  -3.6524  -3.6918  -3.7307  -3.7692  -3.8072  -3.8448  -3.8819  -3.9186  -3.9548  -3.9905  -4.0257  -4.0604  -4.0947  -4.1285  -4.1617  -4.1945  -4.2267  -4.2584  -4.2895  -4.3201  -4.3501  -4.3794  -4.4082  -4.4362  -4.4635  -4.4900  -4.5157  -4.5404  -4.5641  -4.5866  -4.6079  -4.6277  -4.6460  -4.6625  -4.6771  -4.6896  -4.6998  -4.7076  -4.7127  -4.7152  -4.7149  -4.7117  -4.7057  -4.6969  -4.6854  -4.6711  -4.6542  -4.6348  -4.6129  -4.5886  -4.5621  -4.5332  -4.5022  -4.4690  -4.4337  -4.3963  -4.3567  -4.3150  -4.2711  -4.2251  -4.1770  -4.1267  -4.0742  -4.0195  -3.9627  -3.9039  -3.8430  -3.7804  -3.7160  -3.6501  -3.5829  -3.5146  -3.4455  -3.3756  -3.3053  -3.2348  -3.1641  -3.0935  -3.0230  -2.9528  -2.8829  -2.8134
3.570  -3.4579  -3.4997  -3.5410  -3.5820  -3.6226  -3.6627  -3.7025  -3.7417  -3.7806  -3.8190  -3.8569  -3.8944  -3.9315  -3.9680  -4.0042  -4.0398  -4.0750  -4.1097  -4.1440  -4.1778  -4.2111  -4.2439  -4.2762  -4.3081  -4.3394  -4.3703  -4.4006  -4.4304  -4.4597  -4.4885  -4.5166  -4.5441  -4.5710  -4.5972  -4.6226  -4.6472  -4.6709  -4.6936  -4.7152  -4.7355  -4.7544  -4.7717  -4.7874  -4.8011  -4.8128  -4.8223  -4.8294  -4.8341  -4.8362  -4.8357  -4.8326  -4.8268  -4.8185  -4.8077  -4.7943  -4.7785  -4.7603  -4.7398  -4.7170  -4.6918  -4.6644  -4.6345  -4.6023  -4.5677  -4.5306  -4.4909  -4.4486  -4.4036  -4.3559  -4.3055  -4.2525  -4.1967  -4.1384  -4.0778  -4.0149  -3.9501  -3.8835  -3.8155  -3.7464  -3.6763  -3.6056  -3.5345  -3.4632  -3.3919  -3.3208  -3.2499  -3.1794  -3.1094  -3.0399  -2.9710  -2.9026
3.560  -3.6363  -3.6767  -3.7167  -3.7563  -3.7954  -3.8341  -3.8724  -3.9102  -3.9475  -3.9844  -4.0209  -4.0569  -4.0924  -4.1275  -4.1621  -4.1962  -4.2299  -4.2631  -4.2959  -4.3281  -4.3600  -4.3913  -4.4222  -4.4526  -4.4826  -4.5120  -4.5410  -4.5694  -4.5974  -4.6248  -4.6516  -4.6779  -4.7034  -4.7283  -4.7525  -4.7758  -4.7981  -4.8195  -4.8397  -4.8586  -4.8761  -4.8920  -4.9062  -4.9185  -4.9289  -4.9370  -4.9429  -4.9464  -4.9476  -4.9463  -4.9425  -4.9364  -4.9278  -4.9169  -4.9036  -4.8881  -4.8704  -4.8503  -4.8280  -4.8033  -4.7763  -4.7467  -4.7145  -4.6796  -4.6419  -4.6012  -4.5574  -4.5106  -4.4606  -4.4077  -4.3518  -4.2931  -4.2319  -4.1684  -4.1030  -4.0360  -3.9676  -3.8981  -3.8279  -3.7572  -3.6861  -3.6149  -3.5438  -3.4728  -3.4022  -3.3320  -3.2622  -3.1930  -3.1243  -3.0562  -2.9889
3.550  -3.8140  -3.8529  -3.8914  -3.9295  -3.9671  -4.0043  -4.0410  -4.0772  -4.1130  -4.1483  -4.1832  -4.2176  -4.2516  -4.2851  -4.3181  -4.3507  -4.3828  -4.4145  -4.4457  -4.4765  -4.5068  -4.5367  -4.5661  -4.5950  -4.6235  -4.6515  -4.6791  -4.7061  -4.7326  -4.7586  -4.7840  -4.8087  -4.8328  -4.8562  -4.8787  -4.9004  -4.9211  -4.9407  -4.9592  -4.9763  -4.9919  -5.0060  -5.0183  -5.0288  -5.0372  -5.0436  -5.0477  -5.0496  -5.0491  -5.0464  -5.0413  -5.0340  -5.0243  -5.0125  -4.9984  -4.9822  -4.9637  -4.9430  -4.9200  -4.8946  -4.8667  -4.8362  -4.8029  -4.7667  -4.7275  -4.6851  -4.6396  -4.5910  -4.5393  -4.4847  -4.4273  -4.3675  -4.3054  -4.2415  -4.1759  -4.1089  -4.0409  -3.9720  -3.9024  -3.8325  -3.7622  -3.6919  -3.6215  -3.5513  -3.4813  -3.4115  -3.3422  -3.2733  -3.2049  -3.1373  -3.0705
3.540  -3.9903  -4.0277  -4.0646  -4.1010  -4.1370  -4.1726  -4.2077  -4.2423  -4.2764  -4.3102  -4.3434  -4.3762  -4.4086  -4.4405  -4.4719  -4.5029  -4.5335  -4.5636  -4.5933  -4.6225  -4.6513  -4.6796  -4.7075  -4.7350  -4.7619  -4.7884  -4.8144  -4.8398  -4.8648  -4.8891  -4.9128  -4.9358  -4.9581  -4.9797  -5.0004  -5.0201  -5.0388  -5.0564  -5.0727  -5.0876  -5.1010  -5.1128  -5.1228  -5.1309  -5.1371  -5.1411  -5.1430  -5.1427  -5.1401  -5.1353  -5.1283  -5.1190  -5.1074  -5.0937  -5.0778  -5.0596  -5.0393  -5.0167  -4.9918  -4.9646  -4.9349  -4.9026  -4.8677  -4.8301  -4.7896  -4.7463  -4.7001  -4.6511  -4.5994  -4.5451  -4.4885  -4.4297  -4.3689  -4.3064  -4.2423  -4.1769  -4.1104  -4.0430  -3.9747  -3.9059  -3.8366  -3.7669  -3.6969  -3.6268  -3.5567  -3.4867  -3.4169  -3.3477  -3.2793  -3.2119  -3.1460
3.530  -4.1647  -4.2004  -4.2356  -4.2704  -4.3047  -4.3386  -4.3720  -4.4050  -4.4375  -4.4695  -4.5011  -4.5323  -4.5630  -4.5933  -4.6231  -4.6525  -4.6815  -4.7100  -4.7381  -4.7658  -4.7930  -4.8197  -4.8460  -4.8718  -4.8971  -4.9218  -4.9461  -4.9697  -4.9928  -5.0152  -5.0370  -5.0580  -5.0782  -5.0976  -5.1161  -5.1336  -5.1499  -5.1651  -5.1789  -5.1912  -5.2020  -5.2111  -5.2184  -5.2237  -5.2271  -5.2284  -5.2275  -5.2245  -5.2192  -5.2116  -5.2018  -5.1898  -5.1755  -5.1589  -5.1402  -5.1194  -5.0965  -5.0715  -5.0444  -5.0152  -4.9840  -4.9505  -4.9149  -4.8769  -4.8366  -4.7938  -4.7486  -4.7011  -4.6512  -4.5989  -4.5445  -4.4880  -4.4296  -4.3693  -4.3073  -4.2438  -4.1789  -4.1127  -4.0454  -3.9770  -3.9077  -3.8376  -3.7670  -3.6959  -3.6247  -3.5538  -3.4833  -3.4138  -3.3457  -3.2793  -3.2150
3.520  -4.3366  -4.3706  -4.4041  -4.4371  -4.4697  -4.5019  -4.5336  -4.5649  -4.5957  -4.6261  -4.6560  -4.6855  -4.7145  -4.7432  -4.7714  -4.7991  -4.8264  -4.8533  -4.8797  -4.9056  -4.9311  -4.9560  -4.9805  -5.0044  -5.0278  -5.0506  -5.0728  -5.0944  -5.1154  -5.1356  -5.1551  -5.1738  -5.1917  -5.2086  -5.2245  -5.2393  -5.2529  -5.2652  -5.2760  -5.2854  -5.2931  -5.2990  -5.3031  -5.3052  -5.3053  -5.3032  -5.2990  -5.2925  -5.2838  -5.2729  -5.2598  -5.2445  -5.2271  -5.2077  -5.1863  -5.1631  -5.1381  -5.1115  -5.0832  -5.0533  -5.0218  -4.9886  -4.9537  -4.9168  -4.8781  -4.8373  -4.7943  -4.7492  -4.7019  -4.6523  -4.6005  -4.5465  -4.4903  -4.4320  -4.3717  -4.3093  -4.2451  -4.1790  -4.1112  -4.0419  -3.9712  -3.8995  -3.8271  -3.7545  -3.6820  -3.6103  -3.5397  -3.4710  -3.4044  -3.3403  -3.2791
3.510  -4.5055  -4.5377  -4.5694  -4.6007  -4.6316  -4.6620  -4.6920  -4.7215  -4.7506  -4.7793  -4.8075  -4.8353  -4.8626  -4.8895  -4.9160  -4.9419  -4.9674  -4.9925  -5.0170  -5.0410  -5.0645  -5.0874  -5.1098  -5.1315  -5.1527  -5.1733  -5.1932  -5.2124  -5.2309  -5.2486  -5.2655  -5.2815  -5.2965  -5.3105  -5.3234  -5.3351  -5.3455  -5.3545  -5.3620  -5.3678  -5.3718  -5.3740  -5.3743  -5.3725  -5.3686  -5.3627  -5.3547  -5.3446  -5.3324  -5.3183  -5.3023  -5.2845  -5.2649  -5.2437  -5.2210  -5.1969  -5.1714  -5.1447  -5.1167  -5.0875  -5.0571  -5.0252  -4.9920  -4.9571  -4.9205  -4.8820  -4.8415  -4.7989  -4.7540  -4.7067  -4.6570  -4.6048  -4.5500  -4.4925  -4.4324  -4.3697  -4.3044  -4.2367  -4.1668  -4.0951  -4.0221  -3.9482  -3.8741  -3.8003  -3.7274  -3.6562  -3.5873  -3.5209  -3.4577  -3.3975  -3.3406
3.500  -4.6709  -4.7013  -4.7313  -4.7608  -4.7898  -4.8185  -4.8467  -4.8744  -4.9017  -4.9286  -4.9550  -4.9810  -5.0064  -5.0314  -5.0559  -5.0798  -5.1033  -5.1262  -5.1485  -5.1703  -5.1915  -5.2121  -5.2320  -5.2514  -5.2700  -5.2880  -5.3052  -5.3216  -5.3372  -5.3520  -5.3658  -5.3786  -5.3904  -5.4010  -5.4104  -5.4184  -5.4250  -5.4301  -5.4335  -5.4352  -5.4350  -5.4331  -5.4292  -5.4235  -5.4159  -5.4065  -5.3954  -5.3827  -5.3683  -5.3525  -5.3351  -5.3164  -5.2964  -5.2751  -5.2526  -5.2290  -5.2043  -5.1787  -5.1519  -5.1242  -5.0953  -5.0652  -5.0337  -5.0007  -4.9661  -4.9295  -4.8909  -4.8500  -4.8067  -4.7607  -4.7118  -4.6599  -4.6047  -4.5461  -4.4842  -4.4191  -4.3510  -4.2802  -4.2074  -4.1330  -4.0578  -3.9824  -3.9077  -3.8343  -3.7631  -3.6945  -3.6291  -3.5671  -3.5086  -3.4535  -3.4014
3.490  -4.8323  -4.8609  -4.8890  -4.9166  -4.9439  -4.9706  -4.9969  -5.0228  -5.0481  -5.0730  -5.0973  -5.1212  -5.1445  -5.1672  -5.1894  -5.2110  -5.2321  -5.2525  -5.2723  -5.2915  -5.3100  -5.3279  -5.3450  -5.3614  -5.3770  -5.3918  -5.4057  -5.4188  -5.4309  -5.4420  -5.4520  -5.4609  -5.4686  -5.4750  -5.4800  -5.4836  -5.4857  -5.4863  -5.4852  -5.4827  -5.4785  -5.4728  -5.4656  -5.4570  -5.4470  -5.4358  -5.4232  -5.4095  -5.3947  -5.3787  -5.3616  -5.3434  -5.3242  -5.3040  -5.2827  -5.2605  -5.2373  -5.2131  -5.1880  -5.1618  -5.1344  -5.1058  -5.0758  -5.0442  -5.0108  -4.9754  -4.9377  -4.8974  -4.8542  -4.8078  -4.7578  -4.7039  -4.6460  -4.5842  -4.5185  -4.4494  -4.3774  -4.3031  -4.2274  -4.1510  -4.0747  -3.9995  -3.9263  -3.8556  -3.7883  -3.7246  -3.6648  -3.6087  -3.5560  -3.5065  -3.4595
3.480  -4.9890  -5.0156  -5.0418  -5.0674  -5.0926  -5.1173  -5.1414  -5.1650  -5.1881  -5.2106  -5.2326  -5.2540  -5.2747  -5.2949  -5.3144  -5.3333  -5.3515  -5.3690  -5.3858  -5.4019  -5.4172  -5.4316  -5.4453  -5.4581  -5.4700  -5.4809  -5.4909  -5.4998  -5.5076  -5.5143  -5.5198  -5.5240  -5.5271  -5.5289  -5.5294  -5.5287  -5.5267  -5.5235  -5.5192  -5.5137  -5.5072  -5.4996  -5.4911  -5.4815  -5.4711  -5.4597  -5.4475  -5.4343  -5.4203  -5.4054  -5.3895  -5.3728  -5.3550  -5.3363  -5.3166  -5.2959  -5.2742  -5.2514  -5.2275  -5.2024  -5.1759  -5.1481  -5.1186  -5.0874  -5.0540  -5.0183  -4.9798  -4.9381  -4.8928  -4.8435  -4.7899  -4.7317  -4.6690  -4.6022  -4.5317  -4.4584  -4.3829  -4.3062  -4.2292  -4.1528  -4.0781  -4.0058  -3.9369  -3.8717  -3.8106  -3.7535  -3.7003  -3.6506  -3.6038  -3.5594  -3.5170
3.470  -5.1399  -5.1643  -5.1881  -5.2114  -5.2342  -5.2564  -5.2780  -5.2990  -5.3194  -5.3392  -5.3583  -5.3768  -5.3945  -5.4116  -5.4279  -5.4434  -5.4582  -5.4721  -5.4852  -5.4974  -5.5087  -5.5191  -5.5285  -5.5369  -5.5442  -5.5505  -5.5558  -5.5599  -5.5630  -5.5650  -5.5661  -5.5661  -5.5652  -5.5634  -5.5607  -5.5573  -5.5531  -5.5482  -5.5426  -5.5364  -5.5294  -5.5218  -5.5135  -5.5045  -5.4949  -5.4846  -5.4735  -5.4617  -5.4492  -5.4358  -5.4215  -5.4063  -5.3901  -5.3729  -5.3545  -5.3350  -5.3142  -5.2922  -5.2688  -5.2439  -5.2174  -5.1891  -5.1588  -5.1262  -5.0911  -5.0530  -5.0114  -4.9658  -4.9159  -4.8612  -4.8017  -4.7375  -4.6691  -4.5972  -4.5227  -4.4465  -4.3695  -4.2927  -4.2171  -4.1439  -4.0738  -4.0075  -3.9453  -3.8874  -3.8336  -3.7836  -3.7369  -3.6930  -3.6513  -3.6114  -3.5728
3.460  -5.2827  -5.3044  -5.3256  -5.3462  -5.3661  -5.3854  -5.4039  -5.4218  -5.4390  -5.4554  -5.4711  -5.4859  -5.5000  -5.5132  -5.5255  -5.5369  -5.5474  -5.5569  -5.5655  -5.5730  -5.5796  -5.5851  -5.5896  -5.5932  -5.5958  -5.5975  -5.5984  -5.5984  -5.5978  -5.5965  -5.5947  -5.5923  -5.5894  -5.5861  -5.5824  -5.5783  -5.5738  -5.5690  -5.5637  -5.5580  -5.5519  -5.5452  -5.5381  -5.5304  -5.5222  -5.5133  -5.5038  -5.4936  -5.4825  -5.4706  -5.4577  -5.4437  -5.4287  -5.4124  -5.3948  -5.3758  -5.3552  -5.3330  -5.3091  -5.2831  -5.2550  -5.2246  -5.1915  -5.1555  -5.1162  -5.0732  -5.0260  -4.9741  -4.9173  -4.8555  -4.7893  -4.7192  -4.6461  -4.5710  -4.4947  -4.4182  -4.3427  -4.2691  -4.1984  -4.1315  -4.0686  -4.0101  -3.9559  -3.9057  -3.8591  -3.8156  -3.7747  -3.7358  -3.6985  -3.6624  -3.6271
3.450  -5.4145  -5.4331  -5.4510  -5.4682  -5.4846  -5.5003  -5.5151  -5.5292  -5.5423  -5.5546  -5.5660  -5.5764  -5.5858  -5.5943  -5.6018  -5.6083  -5.6138  -5.6183  -5.6220  -5.6247  -5.6266  -5.6277  -5.6281  -5.6279  -5.6271  -5.6259  -5.6243  -5.6223  -5.6200  -5.6176  -5.6149  -5.6120  -5.6090  -5.6059  -5.6025  -5.5991  -5.5954  -5.5915  -5.5873  -5.5828  -5.5780  -5.5727  -5.5671  -5.5609  -5.5541  -5.5467  -5.5385  -5.5295  -5.5196  -5.5087  -5.4967  -5.4834  -5.4688  -5.4528  -5.4351  -5.4156  -5.3941  -5.3704  -5.3443  -5.3154  -5.2837  -5.2488  -5.2106  -5.1688  -5.1229  -5.0726  -5.0176  -4.9577  -4.8933  -4.8248  -4.7532  -4.6793  -4.6041  -4.5286  -4.4536  -4.3804  -4.3098  -4.2427  -4.1796  -4.1209  -4.0665  -4.0162  -3.9698  -3.9267  -3.8865  -3.8487  -3.8128  -3.7783  -3.7449  -3.7123  -3.6800
3.440  -5.5312  -5.5459  -5.5597  -5.5727  -5.5848  -5.5960  -5.6062  -5.6154  -5.6237  -5.6309  -5.6372  -5.6425  -5.6469  -5.6503  -5.6529  -5.6548  -5.6559  -5.6563  -5.6562  -5.6556  -5.6546  -5.6532  -5.6516  -5.6497  -5.6477  -5.6456  -5.6434  -5.6412  -5.6389  -5.6367  -5.6345  -5.6323  -5.6301  -5.6279  -5.6256  -5.6232  -5.6208  -5.6182  -5.6154  -5.6123  -5.6088  -5.6050  -5.6006  -5.5957  -5.5901  -5.5837  -5.5765  -5.5683  -5.5590  -5.5485  -5.5367  -5.5234  -5.5084  -5.4915  -5.4725  -5.4510  -5.4268  -5.3995  -5.3689  -5.3348  -5.2970  -5.2554  -5.2097  -5.1598  -5.1053  -5.0462  -4.9828  -4.9155  -4.8450  -4.7723  -4.6982  -4.6237  -4.5497  -4.4772  -4.4071  -4.3403  -4.2774  -4.2187  -4.1644  -4.1143  -4.0682  -4.0257  -3.9863  -3.9496  -3.9151  -3.8824  -3.8511  -3.8207  -3.7910  -3.7616  -3.7324
3.430  -5.6270  -5.6368  -5.6457  -5.6536  -5.6605  -5.6664  -5.6714  -5.6754  -5.6786  -5.6810  -5.6826  -5.6835  -5.6839  -5.6837  -5.6831  -5.6821  -5.6808  -5.6793  -5.6776  -5.6757  -5.6738  -5.6719  -5.6700  -5.6681  -5.6663  -5.6645  -5.6629  -5.6614  -5.6600  -5.6587  -5.6575  -5.6564  -5.6553  -5.6543  -5.6533  -5.6523  -5.6511  -5.6498  -5.6483  -5.6464  -5.6441  -5.6414  -5.6380  -5.6339  -5.6291  -5.6233  -5.6164  -5.6084  -5.5991  -5.5882  -5.5757  -5.5611  -5.5443  -5.5249  -5.5026  -5.4769  -5.4475  -5.4141  -5.3766  -5.3348  -5.2886  -5.2381  -5.1832  -5.1239  -5.0605  -4.9934  -4.9235  -4.8515  -4.7783  -4.7048  -4.6317  -4.5600  -4.4905  -4.4242  -4.3616  -4.3032  -4.2492  -4.1994  -4.1538  -4.1120  -4.0736  -4.0382  -4.0052  -3.9744  -3.9451  -3.9171  -3.8900  -3.8635  -3.8372  -3.8110  -3.7846
3.420  -5.6958  -5.7003  -5.7039  -5.7068  -5.7088  -5.7102  -5.7109  -5.7111  -5.7108  -5.7101  -5.7091  -5.7078  -5.7063  -5.7046  -5.7029  -5.7011  -5.6992  -5.6974  -5.6957  -5.6940  -5.6925  -5.6911  -5.6898  -5.6886  -5.6877  -5.6869  -5.6863  -5.6858  -5.6855  -5.6854  -5.6854  -5.6856  -5.6858  -5.6860  -5.6862  -5.6864  -5.6864  -5.6861  -5.6856  -5.6846  -5.6832  -5.6812  -5.6784  -5.6748  -5.6702  -5.6645  -5.6574  -5.6488  -5.6383  -5.6258  -5.6108  -5.5931  -5.5723  -5.5479  -5.5195  -5.4868  -5.4495  -5.4075  -5.3607  -5.3093  -5.2534  -5.1932  -5.1290  -5.0616  -4.9915  -4.9196  -4.8468  -4.7737  -4.7012  -4.6301  -4.5612  -4.4953  -4.4330  -4.3749  -4.3212  -4.2719  -4.2268  -4.1858  -4.1485  -4.1144  -4.0831  -4.0542  -4.0272  -4.0016  -3.9772  -3.9535  -3.9302  -3.9071  -3.8840  -3.8606  -3.8369
3.410  -5.7375  -5.7380  -5.7380  -5.7376  -5.7368  -5.7358  -5.7345  -5.7330  -5.7314  -5.7297  -5.7280  -5.7263  -5.7246  -5.7229  -5.7214  -5.7199  -5.7186  -5.7174  -5.7164  -5.7155  -5.7148  -5.7143  -5.7141  -5.7140  -5.7141  -5.7144  -5.7150  -5.7158  -5.7167  -5.7178  -5.7191  -5.7204  -5.7217  -5.7230  -5.7242  -5.7253  -5.7262  -5.7268  -5.7270  -5.7267  -5.7259  -5.7242  -5.7217  -5.7180  -5.7130  -5.7064  -5.6979  -5.6870  -5.6736  -5.6572  -5.6374  -5.6138  -5.5860  -5.5537  -5.5164  -5.4740  -5.4266  -5.3743  -5.3173  -5.2560  -5.1909  -5.1226  -5.0519  -4.9797  -4.9067  -4.8337  -4.7613  -4.6904  -4.6216  -4.5558  -4.4936  -4.4355  -4.3820  -4.3329  -4.2884  -4.2481  -4.2119  -4.1792  -4.1496  -4.1226  -4.0978  -4.0747  -4.0529  -4.0320  -4.0117  -3.9917  -3.9717  -3.9516  -3.9312  -3.9104  -3.8889
3.400  -5.7625  -5.7612  -5.7598  -5.7582  -5.7567  -5.7551  -5.7535  -5.7520  -5.7505  -5.7491  -5.7478  -5.7466  -5.7456  -5.7447  -5.7439  -5.7433  -5.7429  -5.7427  -5.7427  -5.7428  -5.7432  -5.7439  -5.7447  -5.7458  -5.7472  -5.7488  -5.7506  -5.7526  -5.7547  -5.7569  -5.7592  -5.7615  -5.7639  -5.7661  -5.7683  -5.7702  -5.7719  -5.7732  -5.7739  -5.7741  -5.7734  -5.7717  -5.7686  -5.7638  -5.7569  -5.7476  -5.7353  -5.7197  -5.7005  -5.6772  -5.6494  -5.6168  -5.5790  -5.5361  -5.4880  -5.4348  -5.3769  -5.3145  -5.2484  -5.1793  -5.1078  -5.0350  -4.9616  -4.8882  -4.8155  -4.7442  -4.6751  -4.6089  -4.5464  -4.4880  -4.4342  -4.3852  -4.3410  -4.3013  -4.2660  -4.2345  -4.2065  -4.1814  -4.1587  -4.1379  -4.1186  -4.1003  -4.0828  -4.0657  -4.0487  -4.0317  -4.0145  -3.9968  -3.9786  -3.9597  -3.9401
3.390  -5.7790  -5.7774  -5.7758  -5.7743  -5.7729  -5.7716  -5.7704  -5.7694  -5.7684  -5.7676  -5.7670  -5.7665  -5.7662  -5.7661  -5.7662  -5.7665  -5.7670  -5.7677  -5.7687  -5.7699  -5.7715  -5.7732  -5.7752  -5.7775  -5.7799  -5.7826  -5.7853  -5.7882  -5.7912  -5.7943  -5.7974  -5.8005  -5.8036  -5.8065  -5.8092  -5.8117  -5.8138  -5.8154  -5.8162  -5.8161  -5.8146  -5.8114  -5.8060  -5.7979  -5.7867  -5.7718  -5.7529  -5.7295  -5.7012  -5.6677  -5.6288  -5.5846  -5.5351  -5.4805  -5.4211  -5.3573  -5.2898  -5.2192  -5.1464  -5.0724  -4.9979  -4.9236  -4.8501  -4.7781  -4.7084  -4.6416  -4.5786  -4.5199  -4.4660  -4.4171  -4.3732  -4.3343  -4.2999  -4.2698  -4.2434  -4.2202  -4.1997  -4.1812  -4.1645  -4.1489  -4.1343  -4.1202  -4.1063  -4.0925  -4.0786  -4.0644  -4.0497  -4.0344  -4.0183  -4.0015  -3.9838
3.380  -5.7951  -5.7939  -5.7928  -5.7919  -5.7911  -5.7904  -5.7899  -5.7896  -5.7894  -5.7894  -5.7895  -5.7899  -5.7905  -5.7913  -5.7924  -5.7937  -5.7953  -5.7972  -5.7993  -5.8017  -5.8043  -5.8072  -5.8102  -5.8134  -5.8167  -5.8202  -5.8238  -5.8275  -5.8312  -5.8350  -5.8388  -5.8426  -5.8462  -5.8497  -5.8528  -5.8556  -5.8576  -5.8587  -5.8585  -5.8565  -5.8522  -5.8451  -5.8345  -5.8201  -5.8012  -5.7773  -5.7482  -5.7134  -5.6731  -5.6273  -5.5762  -5.5202  -5.4595  -5.3945  -5.3257  -5.2538  -5.1798  -5.1045  -5.0289  -4.9534  -4.8789  -4.8059  -4.7351  -4.6675  -4.6037  -4.5444  -4.4900  -4.4410  -4.3973  -4.3588  -4.3253  -4.2963  -4.2714  -4.2498  -4.2311  -4.2147  -4.2002  -4.1870  -4.1748  -4.1633  -4.1522  -4.1412  -4.1302  -4.1190  -4.1075  -4.0954  -4.0827  -4.0692  -4.0549  -4.0397  -4.0236
3.370  -5.8137  -5.8131  -5.8127  -5.8125  -5.8124  -5.8125  -5.8128  -5.8133  -5.8139  -5.8149  -5.8160  -5.8174  -5.8191  -5.8210  -5.8232  -5.8257  -5.8284  -5.8314  -5.8345  -5.8379  -5.8414  -5.8451  -5.8489  -5.8529  -5.8571  -5.8613  -5.8657  -5.8701  -5.8745  -5.8790  -5.8834  -5.8876  -5.8917  -5.8953  -5.8982  -5.9003  -5.9010  -5.8998  -5.8963  -5.8897  -5.8795  -5.8650  -5.8457  -5.8211  -5.7908  -5.7546  -5.7126  -5.6652  -5.6127  -5.5553  -5.4934  -5.4272  -5.3572  -5.2842  -5.2090  -5.1325  -5.0555  -4.9788  -4.9030  -4.8287  -4.7567  -4.6878  -4.6230  -4.5628  -4.5079  -4.4586  -4.4150  -4.3770  -4.3442  -4.3161  -4.2924  -4.2722  -4.2551  -4.2404  -4.2277  -4.2165  -4.2064  -4.1970  -4.1882  -4.1796  -4.1711  -4.1625  -4.1536  -4.1443  -4.1344  -4.1240  -4.1127  -4.1007  -4.0878  -4.0739  -4.0591
3.360  -5.8355  -5.8357  -5.8361  -5.8366  -5.8374  -5.8384  -5.8396  -5.8411  -5.8428  -5.8449  -5.8472  -5.8497  -5.8525  -5.8556  -5.8588  -5.8623  -5.8659  -5.8697  -5.8738  -5.8779  -5.8823  -5.8868  -5.8914  -5.8962  -5.9011  -5.9060  -5.9111  -5.9161  -5.9212  -5.9261  -5.9308  -5.9351  -5.9387  -5.9414  -5.9426  -5.9419  -5.9387  -5.9323  -5.9219  -5.9071  -5.8871  -5.8614  -5.8297  -5.7920  -5.7485  -5.6996  -5.6457  -5.5871  -5.5240  -5.4566  -5.3855  -5.3113  -5.2348  -5.1569  -5.0785  -5.0003  -4.9229  -4.8471  -4.7736  -4.7034  -4.6375  -4.5764  -4.5210  -4.4715  -4.4279  -4.3903  -4.3582  -4.3311  -4.3084  -4.2895  -4.2738  -4.2606  -4.2494  -4.2398  -4.2313  -4.2237  -4.2167  -4.2100  -4.2035  -4.1969  -4.1902  -4.1832  -4.1757  -4.1677  -4.1591  -4.1498  -4.1396  -4.1287  -4.1169  -4.1042  -4.0907
3.350  -5.8609  -5.8620  -5.8633  -5.8649  -5.8667  -5.8688  -5.8712  -5.8739  -5.8768  -5.8799  -5.8833  -5.8868  -5.8906  -5.8945  -5.8986  -5.9029  -5.9074  -5.9121  -5.9169  -5.9219  -5.9271  -5.9323  -5.9378  -5.9433  -5.9489  -5.9545  -5.9601  -5.9655  -5.9707  -5.9755  -5.9795  -5.9825  -5.9839  -5.9833  -5.9799  -5.9731  -5.9623  -5.9467  -5.9257  -5.8988  -5.8657  -5.8266  -5.7817  -5.7315  -5.6764  -5.6166  -5.5523  -5.4838  -5.4114  -5.3357  -5.2577  -5.1782  -5.0981  -5.0182  -4.9391  -4.8616  -4.7866  -4.7150  -4.6479  -4.5861  -4.5303  -4.4807  -4.4374  -4.4004  -4.3690  -4.3429  -4.3214  -4.3037  -4.2891  -4.2772  -4.2673  -4.2589  -4.2518  -4.2456  -4.2400  -4.2348  -4.2298  -4.2249  -4.2198  -4.2146  -4.2090  -4.2030  -4.1964  -4.1893  -4.1816  -4.1731  -4.1639  -4.1539  -4.1431  -4.1315  -4.1192
3.340  -5.8907  -5.8930  -5.8955  -5.8983  -5.9013  -5.9046  -5.9080  -5.9117  -5.9155  -5.9195  -5.9238  -5.9282  -5.9328  -5.9376  -5.9426  -5.9477  -5.9531  -5.9586  -5.9643  -5.9701  -5.9760  -5.9821  -5.9882  -5.9943  -6.0003  -6.0062  -6.0118  -6.0168  -6.0209  -6.0239  -6.0251  -6.0241  -6.0202  -6.0127  -6.0010  -5.9843  -5.9620  -5.9338  -5.8995  -5.8591  -5.8130  -5.7617  -5.7055  -5.6445  -5.5790  -5.5091  -5.4352  -5.3578  -5.2780  -5.1966  -5.1145  -5.0327  -4.9517  -4.8725  -4.7960  -4.7232  -4.6552  -4.5929  -4.5369  -4.4876  -4.4449  -4.4087  -4.3784  -4.3534  -4.3330  -4.3164  -4.3030  -4.2922  -4.2834  -4.2762  -4.2702  -4.2650  -4.2605  -4.2564  -4.2526  -4.2488  -4.2451  -4.2412  -4.2370  -4.2325  -4.2276  -4.2222  -4.2163  -4.2098  -4.2026  -4.1948  -4.1863  -4.1772  -4.1673  -4.1566  -4.1453
3.330  -5.9262  -5.9296  -5.9332  -5.9369  -5.9409  -5.9450  -5.9494  -5.9539  -5.9586  -5.9635  -5.9687  -5.9740  -5.9795  -5.9852  -5.9911  -5.9971  -6.0034  -6.0097  -6.0162  -6.0228  -6.0293  -6.0359  -6.0423  -6.0484  -6.0541  -6.0591  -6.0631  -6.0657  -6.0665  -6.0648  -6.0600  -6.0514  -6.0384  -6.0204  -5.9968  -5.9672  -5.9315  -5.8899  -5.8428  -5.7905  -5.7333  -5.6713  -5.6044  -5.5330  -5.4572  -5.3779  -5.2959  -5.2123  -5.1281  -5.0442  -4.9614  -4.8805  -4.8026  -4.7289  -4.6603  -4.5979  -4.5423  -4.4936  -4.4519  -4.4169  -4.3879  -4.3642  -4.3450  -4.3297  -4.3175  -4.3077  -4.2999  -4.2936  -4.2885  -4.2842  -4.2805  -4.2773  -4.2743  -4.2714  -4.2686  -4.2657  -4.2626  -4.2592  -4.2555  -4.2514  -4.2468  -4.2418  -4.2362  -4.2301  -4.2233  -4.2160  -4.2080  -4.1994  -4.1901  -4.1801  -4.1694
3.320  -5.9669  -5.9712  -5.9756  -5.9803  -5.9852  -5.9902  -5.9955  -6.0009  -6.0066  -6.0125  -6.0186  -6.0249  -6.0313  -6.0380  -6.0448  -6.0517  -6.0587  -6.0657  -6.0727  -6.0796  -6.0862  -6.0924  -6.0980  -6.1028  -6.1064  -6.1084  -6.1083  -6.1055  -6.0995  -6.0896  -6.0752  -6.0556  -6.0305  -5.9995  -5.9625  -5.9197  -5.8716  -5.8184  -5.7603  -5.6971  -5.6289  -5.5558  -5.4781  -5.3965  -5.3122  -5.2263  -5.1399  -5.0539  -4.9693  -4.8870  -4.8081  -4.7338  -4.6652  -4.6032  -4.5484  -4.5010  -4.4607  -4.4272  -4.3998  -4.3776  -4.3599  -4.3458  -4.3347  -4.3260  -4.3191  -4.3136  -4.3092  -4.3056  -4.3025  -4.2999  -4.2976  -4.2954  -4.2932  -4.2909  -4.2886  -4.2860  -4.2831  -4.2799  -4.2763  -4.2723  -4.2678  -4.2629  -4.2574  -4.2514  -4.2448  -4.2377  -4.2299  -4.2215  -4.2124  -4.2026  -4.1920
3.310  -6.0127  -6.0179  -6.0233  -6.0290  -6.0348  -6.0409  -6.0472  -6.0537  -6.0604  -6.0673  -6.0744  -6.0816  -6.0890  -6.0965  -6.1040  -6.1114  -6.1187  -6.1258  -6.1325  -6.1386  -6.1439  -6.1482  -6.1511  -6.1523  -6.1511  -6.1471  -6.1396  -6.1281  -6.1121  -6.0910  -6.0643  -6.0318  -5.9934  -5.9495  -5.9004  -5.8464  -5.7874  -5.7233  -5.6540  -5.5794  -5.4999  -5.4162  -5.3297  -5.2414  -5.1528  -5.0649  -4.9787  -4.8952  -4.8157  -4.7413  -4.6733  -4.6123  -4.5589  -4.5132  -4.4748  -4.4432  -4.4176  -4.3971  -4.3809  -4.3682  -4.3582  -4.3504  -4.3443  -4.3395  -4.3357  -4.3326  -4.3301  -4.3279  -4.3260  -4.3242  -4.3224  -4.3206  -4.3187  -4.3165  -4.3142  -4.3115  -4.3085  -4.3051  -4.3013  -4.2971  -4.2924  -4.2872  -4.2814  -4.2752  -4.2683  -4.2609  -4.2529  -4.2442  -4.2349  -4.2248  -4.2140
3.300  -6.0650  -6.0713  -6.0778  -6.0846  -6.0915  -6.0987  -6.1061  -6.1137  -6.1215  -6.1294  -6.1374  -6.1454  -6.1533  -6.1612  -6.1687  -6.1759  -6.1825  -6.1884  -6.1933  -6.1969  -6.1990  -6.1990  -6.1966  -6.1911  -6.1821  -6.1690  -6.1514  -6.1286  -6.1004  -6.0665  -6.0270  -5.9821  -5.9323  -5.8777  -5.8184  -5.7541  -5.6846  -5.6097  -5.5296  -5.4449  -5.3568  -5.2668  -5.1762  -5.0864  -4.9987  -4.9143  -4.8345  -4.7604  -4.6933  -4.6338  -4.5823  -4.5388  -4.5026  -4.4731  -4.4495  -4.4307  -4.4160  -4.4045  -4.3955  -4.3885  -4.3831  -4.3788  -4.3754  -4.3727  -4.3704  -4.3684  -4.3667  -4.3650  -4.3633  -4.3615  -4.3596  -4.3575  -4.3552  -4.3525  -4.3495  -4.3462  -4.3424  -4.3383  -4.3336  -4.3285  -4.3230  -4.3169  -4.3103  -4.3032  -4.2956  -4.2874  -4.2785  -4.2691  -4.2590  -4.2481  -4.2366
3.290  -6.1187  -6.1260  -6.1336  -6.1413  -6.1492  -6.1573  -6.1655  -6.1737  -6.1819  -6.1900  -6.1980  -6.2056  -6.2128  -6.2195  -6.2255  -6.2305  -6.2344  -6.2369  -6.2375  -6.2358  -6.2313  -6.2235  -6.2120  -6.1961  -6.1755  -6.1496  -6.1182  -6.0811  -6.0386  -5.9911  -5.9387  -5.8817  -5.8198  -5.7528  -5.6803  -5.6023  -5.5189  -5.4310  -5.3400  -5.2475  -5.1551  -5.0641  -4.9759  -4.8917  -4.8129  -4.7407  -4.6761  -4.6197  -4.5715  -4.5313  -4.4984  -4.4719  -4.4509  -4.4343  -4.4215  -4.4115  -4.4039  -4.3979  -4.3934  -4.3898  -4.3871  -4.3849  -4.3831  -4.3816  -4.3802  -4.3790  -4.3777  -4.3764  -4.3750  -4.3735  -4.3717  -4.3697  -4.3674  -4.3648  -4.3618  -4.3584  -4.3546  -4.3503  -4.3456  -4.3404  -4.3347  -4.3285  -4.3217  -4.3144  -4.3066  -4.2981  -4.2891  -4.2794  -4.2690  -4.2579  -4.2461
3.280  -6.1778  -6.1860  -6.1944  -6.2028  -6.2112  -6.2195  -6.2277  -6.2357  -6.2433  -6.2505  -6.2572  -6.2631  -6.2681  -6.2721  -6.2747  -6.2756  -6.2744  -6.2705  -6.2636  -6.2531  -6.2386  -6.2196  -6.1955  -6.1662  -6.1312  -6.0908  -6.0452  -5.9947  -5.9395  -5.8796  -5.8148  -5.7445  -5.6686  -5.5869  -5.5000  -5.4090  -5.3154  -5.2210  -5.1273  -5.0359  -4.9479  -4.8650  -4.7883  -4.7190  -4.6579  -4.6054  -4.5613  -4.5251  -4.4958  -4.4726  -4.4543  -4.4401  -4.4292  -4.4208  -4.4143  -4.4094  -4.4056  -4.4028  -4.4005  -4.3988  -4.3974  -4.3963  -4.3953  -4.3944  -4.3935  -4.3926  -4.3916  -4.3905  -4.3892  -4.3877  -4.3859  -4.3839  -4.3816  -4.3788  -4.3757  -4.3722  -4.3682  -4.3637  -4.3588  -4.3533  -4.3473  -4.3408  -4.3337  -4.3261  -4.3179  -4.3091  -4.2996  -4.2895  -4.2787  -4.2672  -4.2550
3.270  -6.2413  -6.2499  -6.2583  -6.2665  -6.2744  -6.2819  -6.2890  -6.2954  -6.3012  -6.3061  -6.3099  -6.3125  -6.3134  -6.3123  -6.3088  -6.3024  -6.2927  -6.2791  -6.2612  -6.2386  -6.2109  -6.1778  -6.1391  -6.0952  -6.0463  -5.9927  -5.9345  -5.8714  -5.8031  -5.7292  -5.6494  -5.5639  -5.4734  -5.3795  -5.2837  -5.1880  -5.0938  -5.0027  -4.9161  -4.8355  -4.7621  -4.6969  -4.6405  -4.5928  -4.5534  -4.5216  -4.4962  -4.4764  -4.4609  -4.4490  -4.4399  -4.4330  -4.4277  -4.4237  -4.4207  -4.4184  -4.4166  -4.4153  -4.4143  -4.4134  -4.4127  -4.4121  -4.4115  -4.4108  -4.4101  -4.4093  -4.4084  -4.4073  -4.4060  -4.4045  -4.4027  -4.4005  -4.3980  -4.3951  -4.3918  -4.3880  -4.3837  -4.3789  -4.3736  -4.3678  -4.3614  -4.3544  -4.3469  -4.3388  -4.3301  -4.3208  -4.3109  -4.3003  -4.2890  -4.2769  -4.2641
3.260  -6.3062  -6.3139  -6.3213  -6.3281  -6.3343  -6.3397  -6.3443  -6.3478  -6.3501  -6.3508  -6.3497  -6.3462  -6.3400  -6.3306  -6.3177  -6.3006  -6.2791  -6.2527  -6.2211  -6.1841  -6.1417  -6.0942  -6.0420  -5.9851  -5.9235  -5.8568  -5.7847  -5.7068  -5.6229  -5.5335  -5.4397  -5.3432  -5.2459  -5.1495  -5.0557  -4.9661  -4.8821  -4.8051  -4.7363  -4.6765  -4.6257  -4.5836  -4.5495  -4.5223  -4.5010  -4.4844  -4.4717  -4.4620  -4.4546  -4.4490  -4.4448  -4.4417  -4.4393  -4.4375  -4.4362  -4.4352  -4.4344  -4.4338  -4.4333  -4.4329  -4.4325  -4.4321  -4.4316  -4.4310  -4.4304  -4.4296  -4.4287  -4.4275  -4.4261  -4.4244  -4.4225  -4.4201  -4.4174  -4.4142  -4.4106  -4.4064  -4.4017  -4.3965  -4.3907  -4.3844  -4.3775  -4.3700  -4.3619  -4.3533  -4.3440  -4.3341  -4.3236  -4.3123  -4.3004  -4.2877  -4.2743
3.250  -6.3678  -6.3736  -6.3786  -6.3826  -6.3856  -6.3874  -6.3877  -6.3862  -6.3826  -6.3763  -6.3671  -6.3545  -6.3380  -6.3173  -6.2920  -6.2616  -6.2260  -6.1850  -6.1388  -6.0878  -6.0321  -5.9717  -5.9065  -5.8361  -5.7599  -5.6776  -5.5895  -5.4963  -5.3996  -5.3012  -5.2031  -5.1071  -5.0149  -4.9280  -4.8481  -4.7764  -4.7137  -4.6603  -4.6160  -4.5800  -4.5514  -4.5289  -4.5115  -4.4982  -4.4880  -4.4803  -4.4745  -4.4701  -4.4668  -4.4644  -4.4626  -4.4612  -4.4602  -4.4595  -4.4590  -4.4586  -4.4582  -4.4579  -4.4577  -4.4574  -4.4571  -4.4567  -4.4562  -4.4557  -4.4550  -4.4541  -4.4531  -4.4518  -4.4502  -4.4484  -4.4461  -4.4435  -4.4404  -4.4369  -4.4328  -4.4282  -4.4230  -4.4173  -4.4109  -4.4040  -4.3965  -4.3883  -4.3796  -4.3702  -4.3603  -4.3497  -4.3384  -4.3265  -4.3138  -4.3003  -4.2861
3.240  -6.4208  -6.4231  -6.4242  -6.4239  -6.4219  -6.4178  -6.4114  -6.4021  -6.3896  -6.3736  -6.3535  -6.3290  -6.2997  -6.2652  -6.2255  -6.1805  -6.1306  -6.0760  -6.0168  -5.9529  -5.8840  -5.8094  -5.7289  -5.6423  -5.5501  -5.4536  -5.3546  -5.2552  -5.1574  -5.0631  -4.9740  -4.8917  -4.8176  -4.7528  -4.6975  -4.6515  -4.6143  -4.5846  -4.5614  -4.5434  -4.5296  -4.5192  -4.5113  -4.5053  -4.5008  -4.4975  -4.4950  -4.4932  -4.4919  -4.4909  -4.4902  -4.4897  -4.4893  -4.4891  -4.4888  -4.4887  -4.4885  -4.4883  -4.4881  -4.4879  -4.4875  -4.4871  -4.4866  -4.4860  -4.4851  -4.4841  -4.4829  -4.4814  -4.4796  -4.4774  -4.4748  -4.4718  -4.4683  -4.4642  -4.4596  -4.4544  -4.4486  -4.4422  -4.4351  -4.4275  -4.4192  -4.4103  -4.4007  -4.3906  -4.3798  -4.3684  -4.3563  -4.3434  -4.3299  -4.3156  -4.3004
3.230  -6.4592  -6.4566  -6.4521  -6.4453  -6.4359  -6.4235  -6.4076  -6.3880  -6.3641  -6.3356  -6.3021  -6.2635  -6.2198  -6.1710  -6.1176  -6.0596  -5.9970  -5.9295  -5.8566  -5.7779  -5.6930  -5.6022  -5.5064  -5.4074  -5.3073  -5.2082  -5.1122  -5.0214  -4.9374  -4.8617  -4.7954  -4.7389  -4.6920  -4.6540  -4.6238  -4.6003  -4.5821  -4.5682  -4.5577  -4.5497  -4.5438  -4.5393  -4.5360  -4.5335  -4.5317  -4.5304  -4.5294  -4.5288  -4.5283  -4.5279  -4.5277  -4.5275  -4.5274  -4.5273  -4.5272  -4.5271  -4.5270  -4.5268  -4.5265  -4.5262  -4.5258  -4.5253  -4.5246  -4.5238  -4.5228  -4.5215  -4.5200  -4.5182  -4.5159  -4.5133  -4.5102  -4.5066  -4.5024  -4.4977  -4.4924  -4.4864  -4.4798  -4.4725  -4.4646  -4.4560  -4.4468  -4.4370  -4.4265  -4.4154  -4.4036  -4.3912  -4.3781  -4.3642  -4.3496  -4.3342  -4.3180
3.220  -6.4784  -6.4687  -6.4561  -6.4403  -6.4209  -6.3975  -6.3697  -6.3373  -6.2999  -6.2575  -6.2101  -6.1579  -6.1012  -6.0400  -5.9741  -5.9031  -5.8265  -5.7437  -5.6549  -5.5607  -5.4625  -5.3624  -5.2627  -5.1658  -5.0739  -4.9888  -4.9122  -4.8452  -4.7883  -4.7412  -4.7032  -4.6731  -4.6496  -4.6316  -4.6179  -4.6075  -4.5997  -4.5939  -4.5895  -4.5863  -4.5839  -4.5821  -4.5809  -4.5799  -4.5793  -4.5788  -4.5785  -4.5783  -4.5781  -4.5781  -4.5780  -4.5779  -4.5779  -4.5778  -4.5777  -4.5775  -4.5773  -4.5771  -4.5767  -4.5763  -4.5757  -4.5749  -4.5740  -4.5729  -4.5715  -4.5698  -4.5677  -4.5653  -4.5624  -4.5590  -4.5551  -4.5506  -4.5455  -4.5398  -4.5334  -4.5264  -4.5187  -4.5103  -4.5012  -4.4915  -4.4812  -4.4701  -4.4585  -4.4461  -4.4331  -4.4195  -4.4051  -4.3899  -4.3741  -4.3574  -4.3399
3.210  -6.4720  -6.4528  -6.4298  -6.4029  -6.3717  -6.3358  -6.2950  -6.2494  -6.1989  -6.1439  -6.0846  -6.0208  -5.9522  -5.8783  -5.7987  -5.7132  -5.6221  -5.5265  -5.4283  -5.3296  -5.2329  -5.1409  -5.0557  -4.9791  -4.9123  -4.8557  -4.8092  -4.7718  -4.7423  -4.7195  -4.7020  -4.6888  -4.6788  -4.6713  -4.6656  -4.6615  -4.6584  -4.6561  -4.6544  -4.6532  -4.6523  -4.6517  -4.6513  -4.6510  -4.6508  -4.6506  -4.6506  -4.6505  -4.6505  -4.6504  -4.6504  -4.6503  -4.6502  -4.6500  -4.6498  -4.6495  -4.6491  -4.6485  -4.6479  -4.6470  -4.6460  -4.6447  -4.6431  -4.6412  -4.6389  -4.6362  -4.6330  -4.6293  -4.6250  -4.6202  -4.6147  -4.6087  -4.6020  -4.5947  -4.5867  -4.5781  -4.5688  -4.5588  -4.5482  -4.5369  -4.5249  -4.5123  -4.4990  -4.4851  -4.4705  -4.4552  -4.4391  -4.4224  -4.4049  -4.3866  -4.3674
3.200  -6.4367  -6.4072  -6.3735  -6.3353  -6.2924  -6.2449  -6.1928  -6.1365  -6.0761  -6.0116  -5.9428  -5.8694  -5.7913  -5.7084  -5.6214  -5.5317  -5.4410  -5.3513  -5.2649  -5.1842  -5.1111  -5.0471  -4.9930  -4.9485  -4.9128  -4.8849  -4.8633  -4.8469  -4.8344  -4.8251  -4.8181  -4.8129  -4.8090  -4.8061  -4.8040  -4.8025  -4.8013  -4.8005  -4.7999  -4.7995  -4.7993  -4.7991  -4.7989  -4.7989  -4.7988  -4.7987  -4.7986  -4.7984  -4.7982  -4.7979  -4.7974  -4.7968  -4.7960  -4.7949  -4.7936  -4.7919  -4.7899  -4.7874  -4.7844  -4.7809  -4.7768  -4.7721  -4.7668  -4.7609  -4.7543  -4.7472  -4.7395  -4.7313  -4.7226  -4.7135  -4.7040  -4.6940  -4.6837  -4.6729  -4.6618  -4.6501  -4.6379  -4.6252  -4.6120  -4.5981  -4.5837  -4.5686  -4.5529  -4.5366  -4.5196  -4.5020  -4.4837  -4.4646  -4.4448  -4.4242  -4.4029
#
# AESOPUS computation completed
