#  Calculations performed with AESOPUS via the web interface: http://stev.oapd.inaf.it/aesopus
#  Date:  11/07/2019; Central European Time  01:31:52
#  Tables of Rosseland mean opacities
#  Reference paper: Marigo & Aringer (2009, A&A, 508, 1539)
#
#  Definitions:
#  The base-10 logarithm of the Rosseland mean opacity [cm**2/g] as a function
#  of log10(T) for columns of constant log10(R), where:
#  R=density[g/cm**3]/T6**3, T6=1.e-6*T[K]
#
#  Ranges of state parameters
#
#  log10(T) range: nt=  67  values from  4.500  to  3.200
#  log10(T) = [3.200,3.700] in steps of  0.010
#  log10(T) = ]3.700,4.500] in steps of  0.050
#
#  log10(R) range: nre= 91  values from -8.000  to  1.000
#                           in steps of  0.100
#
#
#  Composition parameters:
#
#       X     = hydrogen mass fraction
#               mh =  1 values from 0.700 to 0.700 in steps of 0.200
#       Zref  = 2.500000E-04  reference metallicity
#       Z     = actual metallicity
#
#       Reference solar mixture: Grevesse & Sauval 1998 ---- Zsun =  0.01696  (C/O)sun =  0.48978
#
#     Zi   element   (ni/nz)sun         (Xi/Z)sun         <Ai>
#
#      3     Li     9.323684E-09     3.757845E-09     6.941739E+00
#      4     Be     1.859891E-08     9.731966E-09     9.012183E+00
#      5     B      2.627166E-07     1.649247E-07     1.081222E+01
#      6     C      2.451814E-01     1.709837E-01     1.201114E+01
#      7     N      6.158679E-02     5.008508E-02     1.400676E+01
#      8     O      5.005962E-01     4.650221E-01     1.599938E+01
#      9     F      2.688361E-05     2.965430E-05     1.899841E+01
#     10     Ne     8.904049E-02     1.042809E-01     2.017132E+01
#     11     Na     1.583024E-03     2.113028E-03     2.298977E+01
#     12     Mg     2.814411E-02     3.972350E-02     2.430955E+01
#     13     Al     2.184679E-03     3.422452E-03     2.698154E+01
#     14     Si     2.627166E-02     4.284049E-02     2.808561E+01
#     15     P      2.086832E-04     3.752879E-04     3.097377E+01
#     16     S      1.583024E-02     2.947097E-02     3.206445E+01
#     17     Cl     2.341464E-04     4.820356E-04     3.545753E+01
#     18     Ar     1.859891E-03     4.313819E-03     3.994766E+01
#     19     K      9.758600E-05     2.215449E-04     3.910130E+01
#     20     Ca     1.696632E-03     3.947852E-03     4.007654E+01
#     21     Sc     1.094933E-06     2.857969E-06     4.495592E+01
#     22     Ti     7.753317E-05     2.155336E-04     4.787893E+01
#     23     V      7.404360E-06     2.189994E-05     5.094157E+01
#     24     Cr     3.463279E-04     1.045572E-03     5.199762E+01
#     25     Mn     1.817136E-04     5.796206E-04     5.493805E+01
#     26     Fe     2.341464E-02     7.592291E-02     5.584731E+01
#     27     Co     6.158679E-05     2.107320E-04     5.893319E+01
#     28     Ni     1.316702E-03     4.487945E-03     5.870525E+01
#     29     Cu     1.201123E-05     4.431668E-05     6.354723E+01
#     30     Zn     2.947729E-05     1.119080E-04     6.538687E+01
#     31     Ga     5.616782E-07     2.273583E-06     6.971723E+01
#     32     Ge     1.903214E-06     8.025819E-06     7.263045E+01
#     33     As     1.736151E-07     7.552272E-07     7.492160E+01
#     34     Se     1.903214E-06     8.728593E-06     7.899028E+01
#     35     Br     3.158548E-07     1.465389E-06     7.990652E+01
#     36     Kr     1.511428E-06     7.353928E-06     8.380092E+01
#     37     Rb     2.947729E-07     1.462765E-06     8.546807E+01
#     38     Sr     6.910151E-07     3.515251E-06     8.761646E+01
#     39     Y      1.287027E-07     6.643562E-07     8.890587E+01
#     40     Zr     2.947729E-07     1.561272E-06     9.122375E+01
#     41     Nb     1.947545E-08     1.050549E-07     9.290638E+01
#     42     Mo     6.158679E-08     3.428800E-07     9.588960E+01
#     43     Tc     0.000000E+00     0.000000E+00     9.690639E+01
#     44     Ru     5.122566E-08     3.005927E-07     1.010666E+02
#     45     Rh     9.758600E-09     5.830546E-08     1.029055E+02
#     46     Pd     3.626499E-08     2.240978E-07     1.064307E+02
#     47     Ag     6.448928E-09     4.038921E-08     1.078685E+02
#     48     Cd     4.360011E-08     2.845931E-07     1.124227E+02
#     49     In     3.384446E-08     2.256221E-07     1.148183E+02
#     50     Sn     7.404360E-08     5.104404E-07     1.187338E+02
#     51     Sb     7.404360E-09     5.234457E-08     1.217590E+02
#     52     Te     1.287027E-07     9.537093E-07     1.276278E+02
#     53     I      2.395452E-08     1.765011E-07     1.269045E+02
#     54     Xe     1.094933E-07     8.346586E-07     1.312920E+02
#     55     Cs     9.990507E-09     7.709272E-08     1.329054E+02
#     56     Ba     9.990507E-08     7.965774E-07     1.373275E+02
#     57     La     1.094933E-08     8.830597E-08     1.389055E+02
#     58     Ce     2.814411E-08     2.289570E-07     1.401146E+02
#     59     Pr     3.796536E-09     3.106028E-08     1.409077E+02
#     60     Nd     2.341464E-08     1.960919E-07     1.442411E+02
#     61     Pm     0.000000E+00     0.000000E+00     1.449128E+02
#     62     Sm     7.576830E-09     6.614742E-08     1.503635E+02
#     63     Eu     2.395452E-09     2.113547E-08     1.519642E+02
#     64     Gd     9.758600E-09     8.909990E-08     1.572558E+02
#     65     Tb     5.881492E-10     5.427051E-09     1.589254E+02
#     66     Dy     1.022322E-08     9.645489E-08     1.625001E+02
#     67     Ho     1.347372E-09     1.290242E-08     1.649304E+02
#     68     Er     6.302133E-09     6.120210E-08     1.672614E+02
#     69     Tm     7.404360E-10     7.262536E-09     1.689342E+02
#     70     Yb     8.904049E-09     8.945589E-08     1.730367E+02
#     71     Lu     8.503301E-10     8.638257E-09     1.749667E+02
#     72     Hf     5.616782E-09     5.820847E-08     1.784907E+02
#     73     Ta     5.488928E-10     5.766657E-09     1.809479E+02
#     74     W      9.540860E-09     1.018390E-07     1.838415E+02
#     75     Re     1.410872E-09     1.525392E-08     1.862134E+02
#     76     Os     2.086832E-08     2.304976E-07     1.902374E+02
#     77     Ir     1.658011E-08     1.850377E-07     1.922161E+02
#     78     Pt     4.671835E-08     5.291572E-07     1.950806E+02
#     79     Au     7.576830E-09     8.664890E-08     1.969666E+02
#     80     Hg     9.990507E-09     1.163576E-07     2.005969E+02
#     81     Tl     5.881492E-09     6.979384E-08     2.043838E+02
#     82     Pb     6.599143E-08     7.939617E-07     2.072187E+02
#     83     Bi     3.796536E-09     4.606554E-08     2.089804E+02
#     84     Po     0.000000E+00     0.000000E+00     2.089824E+02
#     85     At     0.000000E+00     0.000000E+00     2.099870E+02
#     86     Rn     0.000000E+00     0.000000E+00     2.220176E+02
#     87     Fr     0.000000E+00     0.000000E+00     2.230198E+02
#     88     Ra     0.000000E+00     0.000000E+00     2.260254E+02
#     89     Ac     0.000000E+00     0.000000E+00     2.270278E+02
#     90     Th     9.105159E-10     1.226676E-08     2.320381E+02
#     91     Pa     0.000000E+00     0.000000E+00     2.310359E+02
#     92     U      2.341464E-10     3.235939E-09     2.380289E+02
#     93     Np     0.000000E+00     0.000000E+00     2.370482E+02
#     94     Pu     0.000000E+00     0.000000E+00     2.440642E+02
#     95     Am     0.000000E+00     0.000000E+00     2.430614E+02
#     96     Cm     0.000000E+00     0.000000E+00     2.470704E+02
#     97     Bk     0.000000E+00     0.000000E+00     2.470703E+02
#     98     Cf     0.000000E+00     0.000000E+00     2.510796E+02
#     99     Es     0.000000E+00     0.000000E+00     2.540881E+02
#
#
#  Abundance ratio variations of metals with respect to 
#  scaled-solar values: [X_i/Fe] (in dex)
#  Fe-group elements: V, Cr, Mn, Fe, Co, Ni, Cu, Zn
#  Reference metallicity is preserved:  Zref = Z
#  No change in any metal abundance
#
#       1    H         -----      34   [Se/Fe]=   0.000      67   [Ho/Fe]=   0.000
#       2    He        -----      35   [Br/Fe]=   0.000      68   [Er/Fe]=   0.000
#       3   [Li/Fe]=   0.000      36   [Kr/Fe]=   0.000      69   [Tm/Fe]=   0.000
#       4   [Be/Fe]=   0.000      37   [Rb/Fe]=   0.000      70   [Yb/Fe]=   0.000
#       5   [B /Fe]=   0.000      38   [Sr/Fe]=   0.000      71   [Lu/Fe]=   0.000
#       6   [C /Fe]=   0.000      39   [Y /Fe]=   0.000      72   [Hf/Fe]=   0.000
#       7   [N /Fe]=   0.000      40   [Zr/Fe]=   0.000      73   [Ta/Fe]=   0.000
#       8   [O /Fe]=   0.000      41   [Nb/Fe]=   0.000      74   [W /Fe]=   0.000
#       9   [F /Fe]=   0.000      42   [Mo/Fe]=   0.000      75   [Re/Fe]=   0.000
#      10   [Ne/Fe]=   0.000      43   [Tc/Fe]=   0.000      76   [Os/Fe]=   0.000
#      11   [Na/Fe]=   0.000      44   [Ru/Fe]=   0.000      77   [Ir/Fe]=   0.000
#      12   [Mg/Fe]=   0.000      45   [Rh/Fe]=   0.000      78   [Pt/Fe]=   0.000
#      13   [Al/Fe]=   0.000      46   [Pd/Fe]=   0.000      79   [Au/Fe]=   0.000
#      14   [Si/Fe]=   0.000      47   [Ag/Fe]=   0.000      80   [Hg/Fe]=   0.000
#      15   [P /Fe]=   0.000      48   [Cd/Fe]=   0.000      81   [Tl/Fe]=   0.000
#      16   [S /Fe]=   0.000      49   [In/Fe]=   0.000      82   [Pb/Fe]=   0.000
#      17   [Cl/Fe]=   0.000      50   [Sn/Fe]=   0.000      83   [Bi/Fe]=   0.000
#      18   [Ar/Fe]=   0.000      51   [Sb/Fe]=   0.000      84   [Po/Fe]=   0.000
#      19   [K /Fe]=   0.000      52   [Te/Fe]=   0.000      85   [At/Fe]=   0.000
#      20   [Ca/Fe]=   0.000      53   [I /Fe]=   0.000      86   [Rn/Fe]=   0.000
#      21   [Sc/Fe]=   0.000      54   [Xe/Fe]=   0.000      87   [Fr/Fe]=   0.000
#      22   [Ti/Fe]=   0.000      55   [Cs/Fe]=   0.000      88   [Ra/Fe]=   0.000
#      23    V         -----      56   [Ba/Fe]=   0.000      89   [Ac/Fe]=   0.000
#      24    Cr        -----      57   [La/Fe]=   0.000      90   [Th/Fe]=   0.000
#      25    Mn        -----      58   [Ce/Fe]=   0.000      91   [Pa/Fe]=   0.000
#      26    Fe        -----      59   [Pr/Fe]=   0.000      92   [U /Fe]=   0.000
#      27    Co        -----      60   [Nd/Fe]=   0.000      93   [Np/Fe]=   0.000
#      28    Ni        -----      61   [Pm/Fe]=   0.000      94   [Pu/Fe]=   0.000
#      29    Cu        -----      62   [Sm/Fe]=   0.000      95   [Am/Fe]=   0.000
#      30    Zn        -----      63   [Eu/Fe]=   0.000      96   [Cm/Fe]=   0.000
#      31   [Ga/Fe]=   0.000      64   [Gd/Fe]=   0.000      97   [Bk/Fe]=   0.000
#      32   [Ge/Fe]=   0.000      65   [Tb/Fe]=   0.000      98   [Cf/Fe]=   0.000
#      33   [As/Fe]=   0.000      66   [Dy/Fe]=   0.000      99   [Es/Fe]=   0.000
#
#
#  Individual variations of metal abundances (number fraction): log10(variation factor) (in dex)
#  Reference metallicity is in general NOT preserved Zref != Z
#
#       1   H    -----      34   Se   0.000      67   Ho   0.000
#       2   He   -----      35   Br   0.000      68   Er   0.000
#       3   Li   0.000      36   Kr   0.000      69   Tm   0.000
#       4   Be   0.000      37   Rb   0.000      70   Yb   0.000
#       5   B    0.000      38   Sr   0.000      71   Lu   0.000
#       6   C    0.000      39   Y    0.000      72   Hf   0.000
#       7   N    0.000      40   Zr   0.000      73   Ta   0.000
#       8   O    0.000      41   Nb   0.000      74   W    0.000
#       9   F    0.000      42   Mo   0.000      75   Re   0.000
#      10   Ne   0.000      43   Tc   0.000      76   Os   0.000
#      11   Na   0.000      44   Ru   0.000      77   Ir   0.000
#      12   Mg   0.000      45   Rh   0.000      78   Pt   0.000
#      13   Al   0.000      46   Pd   0.000      79   Au   0.000
#      14   Si   0.000      47   Ag   0.000      80   Hg   0.000
#      15   P    0.000      48   Cd   0.000      81   Tl   0.000
#      16   S    0.000      49   In   0.000      82   Pb   0.000
#      17   Cl   0.000      50   Sn   0.000      83   Bi   0.000
#      18   Ar   0.000      51   Sb   0.000      84   Po   0.000
#      19   K    0.000      52   Te   0.000      85   At   0.000
#      20   Ca   0.000      53   I    0.000      86   Rn   0.000
#      21   Sc   0.000      54   Xe   0.000      87   Fr   0.000
#      22   Ti   0.000      55   Cs   0.000      88   Ra   0.000
#      23   V    0.000      56   Ba   0.000      89   Ac   0.000
#      24   Cr   0.000      57   La   0.000      90   Th   0.000
#      25   Mn   0.000      58   Ce   0.000      91   Pa   0.000
#      26   Fe   0.000      59   Pr   0.000      92   U    0.000
#      27   Co   0.000      60   Nd   0.000      93   Np   0.000
#      28   Ni   0.000      61   Pm   0.000      94   Pu   0.000
#      29   Cu   0.000      62   Sm   0.000      95   Am   0.000
#      30   Zn   0.000      63   Eu   0.000      96   Cm   0.000
#      31   Ga   0.000      64   Gd   0.000      97   Bk   0.000
#      32   Ge   0.000      65   Tb   0.000      98   Cf   0.000
#      33   As   0.000      66   Dy   0.000      99   Es   0.000
#
#
#              VARIATION GRID OF C/O - C - N ABUNDANCES (in number fraction)
#
#          FCO = log10(variation factor) of C/O ratio
#
#
#           FC = log10(variation factor) of carbon abundance
#
#
#           FN = log10(variation factor) of nitrogen abundance
#
#
#           FO = FC - FCO = log10(variation factor) of oxygen abundance 
#
#
#              TOTAL NUMBER OF TABLES:   mh x mco x mc x mn =     1
#
#
# TABLE      1     X=  0.700000     Y=  0.299750     Zref= 2.500000E-04     Z= 2.500000E-04     FCO=  0.000   FC=  0.000   FN=  0.000   FO=  0.000  C/O=   4.8978E-01
#
#     Zi   element     ni/nz             Xi/Z            ni/nH            Xi/XH             <Ai>
#
#      3     Li     9.323684E-09     3.757845E-09     1.948780E-13     1.342087E-12       6.941739
#      4     Be     1.859891E-08     9.731966E-09     3.887432E-13     3.475702E-12       9.012183
#      5     B      2.627166E-07     1.649247E-07     5.491144E-12     5.890167E-11      10.812224
#      6     C      2.451814E-01     1.709837E-01     5.124633E-06     6.106561E-05      12.011137
#      7     N      6.158679E-02     5.008508E-02     1.287250E-06     1.788753E-05      14.006763
#      8     O      5.005962E-01     4.650221E-01     1.046316E-05     1.660793E-04      15.999375
#      9     F      2.688361E-05     2.965430E-05     5.619049E-10     1.059082E-08      18.998405
#     10     Ne     8.904049E-02     1.042809E-01     1.861070E-06     3.724319E-05      20.171321
#     11     Na     1.583024E-03     2.113028E-03     3.308741E-08     7.546528E-07      22.989771
#     12     Mg     2.814411E-02     3.972350E-02     5.882512E-07     1.418696E-05      24.309551
#     13     Al     2.184679E-03     3.422452E-03     4.566283E-08     1.222304E-06      26.981541
#     14     Si     2.627166E-02     4.284049E-02     5.491144E-07     1.530018E-05      28.085611
#     15     P      2.086832E-04     3.752879E-04     4.361770E-09     1.340314E-07      30.973765
#     16     S      1.583024E-02     2.947097E-02     3.308741E-07     1.052535E-05      32.064451
#     17     Cl     2.341464E-04     4.820356E-04     4.893987E-09     1.721556E-07      35.457532
#     18     Ar     1.859891E-03     4.313819E-03     3.887432E-08     1.540650E-06      39.947662
#     19     K      9.758600E-05     2.215449E-04     2.039684E-09     7.912318E-08      39.101298
#     20     Ca     1.696632E-03     3.947852E-03     3.546197E-08     1.409947E-06      40.076544
#     21     Sc     1.094933E-06     2.857969E-06     2.288563E-11     1.020703E-09      44.955917
#     22     Ti     7.753317E-05     2.155336E-04     1.620551E-09     7.697629E-08      47.878925
#     23     V      7.404360E-06     2.189994E-05     1.547615E-10     7.821407E-09      50.941572
#     24     Cr     3.463279E-04     1.045572E-03     7.238737E-09     3.734187E-07      51.997623
#     25     Mn     1.817136E-04     5.796206E-04     3.798069E-09     2.070074E-07      54.938046
#     26     Fe     2.341464E-02     7.592291E-02     4.893987E-07     2.711533E-05      55.847311
#     27     Co     6.158679E-05     2.107320E-04     1.287250E-09     7.526144E-08      58.933189
#     28     Ni     1.316702E-03     4.487945E-03     2.752091E-08     1.602838E-06      58.705254
#     29     Cu     1.201123E-05     4.431668E-05     2.510515E-10     1.582739E-08      63.547234
#     30     Zn     2.947729E-05     1.119080E-04     6.161165E-10     3.996715E-08      65.386875
#     31     Ga     5.616782E-07     2.273583E-06     1.173986E-11     8.119938E-10      69.717234
#     32     Ge     1.903214E-06     8.025819E-06     3.977982E-11     2.866364E-09      72.630452
#     33     As     1.736151E-07     7.552272E-07     3.628798E-12     2.697240E-10      74.921600
#     34     Se     1.903214E-06     8.728593E-06     3.977982E-11     3.117355E-09      78.990277
#     35     Br     3.158548E-07     1.465389E-06     6.601807E-12     5.233531E-10      79.906523
#     36     Kr     1.511428E-06     7.353928E-06     3.159096E-11     2.626403E-09      83.800924
#     37     Rb     2.947729E-07     1.462765E-06     6.161165E-12     5.224160E-10      85.468072
#     38     Sr     6.910151E-07     3.515251E-06     1.444318E-11     1.255447E-09      87.616461
#     39     Y      1.287027E-07     6.643562E-07     2.690065E-12     2.372701E-10      88.905867
#     40     Zr     2.947729E-07     1.561272E-06     6.161165E-12     5.575970E-10      91.223746
#     41     Nb     1.947545E-08     1.050549E-07     4.070641E-13     3.751959E-11      92.906380
#     42     Mo     6.158679E-08     3.428800E-07     1.287250E-12     1.224571E-10      95.889605
#     43     Tc     0.000000E+00     0.000000E+00     0.000000E+00     0.000000E+00      96.906390
#     44     Ru     5.122566E-08     3.005927E-07     1.070688E-12     1.073545E-10     101.066641
#     45     Rh     9.758600E-09     5.830546E-08     2.039684E-13     2.082338E-11     102.905511
#     46     Pd     3.626499E-08     2.240978E-07     7.579888E-13     8.003493E-11     106.430727
#     47     Ag     6.448928E-09     4.038921E-08     1.347916E-13     1.442472E-11     107.868530
#     48     Cd     4.360011E-08     2.845931E-07     9.113030E-13     1.016404E-10     112.422659
#     49     In     3.384446E-08     2.256221E-07     7.073963E-13     8.057932E-11     114.818279
#     50     Sn     7.404360E-08     5.104404E-07     1.547615E-12     1.823001E-10     118.733825
#     51     Sb     7.404360E-09     5.234457E-08     1.547615E-13     1.869449E-11     121.758986
#     52     Te     1.287027E-07     9.537093E-07     2.690065E-12     3.406105E-10     127.627845
#     53     I      2.395452E-08     1.765011E-07     5.006830E-13     6.303612E-11     126.904474
#     54     Xe     1.094933E-07     8.346586E-07     2.288563E-12     2.980924E-10     131.292004
#     55     Cs     9.990507E-09     7.709272E-08     2.088155E-13     2.753311E-11     132.905440
#     56     Ba     9.990507E-08     7.965774E-07     2.088155E-12     2.844919E-10     137.327464
#     57     La     1.094933E-08     8.830597E-08     2.288563E-13     3.153785E-11     138.905511
#     58     Ce     2.814411E-08     2.289570E-07     5.882512E-13     8.177036E-11     140.114588
#     59     Pr     3.796536E-09     3.106028E-08     7.935290E-14     1.109296E-11     140.907700
#     60     Nd     2.341464E-08     1.960919E-07     4.893987E-13     7.003280E-11     144.241079
#     61     Pm     0.000000E+00     0.000000E+00     0.000000E+00     0.000000E+00     144.912790
#     62     Sm     7.576830E-09     6.614742E-08     1.583663E-13     2.362408E-11     150.363469
#     63     Eu     2.395452E-09     2.113547E-08     5.006830E-14     7.548382E-12     151.964200
#     64     Gd     9.758600E-09     8.909990E-08     2.039684E-13     3.182139E-11     157.255784
#     65     Tb     5.881492E-10     5.427051E-09     1.229314E-14     1.938232E-12     158.925390
#     66     Dy     1.022322E-08     9.645489E-08     2.136795E-13     3.444818E-11     162.500111
#     67     Ho     1.347372E-09     1.290242E-08     2.816196E-14     4.608007E-12     164.930360
#     68     Er     6.302133E-09     6.120210E-08     1.317234E-13     2.185789E-11     167.261394
#     69     Tm     7.404360E-10     7.262536E-09     1.547615E-14     2.593763E-12     168.934240
#     70     Yb     8.904049E-09     8.945589E-08     1.861070E-13     3.194853E-11     173.036747
#     71     Lu     8.503301E-10     8.638257E-09     1.777308E-14     3.085092E-12     174.966749
#     72     Hf     5.616782E-09     5.820847E-08     1.173986E-13     2.078874E-11     178.490703
#     73     Ta     5.488928E-10     5.766657E-09     1.147263E-14     2.059521E-12     180.947907
#     74     W      9.540860E-09     1.018390E-07     1.994173E-13     3.637108E-11     183.841519
#     75     Re     1.410872E-09     1.525392E-08     2.948919E-14     5.447828E-12     186.213359
#     76     Os     2.086832E-08     2.304976E-07     4.361770E-13     8.232057E-11     190.237368
#     77     Ir     1.658011E-08     1.850377E-07     3.465475E-13     6.608491E-11     192.216095
#     78     Pt     4.671835E-08     5.291572E-07     9.764788E-13     1.889847E-10     195.080617
#     79     Au     7.576830E-09     8.664890E-08     1.583663E-13     3.094604E-11     196.966550
#     80     Hg     9.990507E-09     1.163576E-07     2.088155E-13     4.155629E-11     200.596900
#     81     Tl     5.881492E-09     6.979384E-08     1.229314E-13     2.492637E-11     204.383823
#     82     Pb     6.599143E-08     7.939617E-07     1.379313E-12     2.835578E-10     207.218721
#     83     Bi     3.796536E-09     4.606554E-08     7.935290E-14     1.645198E-11     208.980400
#     84     Po     0.000000E+00     0.000000E+00     0.000000E+00     0.000000E+00     208.982440
#     85     At     0.000000E+00     0.000000E+00     0.000000E+00     0.000000E+00     209.987040
#     86     Rn     0.000000E+00     0.000000E+00     0.000000E+00     0.000000E+00     222.017610
#     87     Fr     0.000000E+00     0.000000E+00     0.000000E+00     0.000000E+00     223.019760
#     88     Ra     0.000000E+00     0.000000E+00     0.000000E+00     0.000000E+00     226.025440
#     89     Ac     0.000000E+00     0.000000E+00     0.000000E+00     0.000000E+00     227.027770
#     90     Th     9.105159E-10     1.226676E-08     1.903105E-14     4.380986E-12     232.038080
#     91     Pa     0.000000E+00     0.000000E+00     0.000000E+00     0.000000E+00     231.035900
#     92     U      2.341464E-10     3.235939E-09     4.893987E-15     1.155693E-12     238.028942
#     93     Np     0.000000E+00     0.000000E+00     0.000000E+00     0.000000E+00     237.048190
#     94     Pu     0.000000E+00     0.000000E+00     0.000000E+00     0.000000E+00     244.064240
#     95     Am     0.000000E+00     0.000000E+00     0.000000E+00     0.000000E+00     243.061390
#     96     Cm     0.000000E+00     0.000000E+00     0.000000E+00     0.000000E+00     247.070380
#     97     Bk     0.000000E+00     0.000000E+00     0.000000E+00     0.000000E+00     247.070320
#     98     Cf     0.000000E+00     0.000000E+00     0.000000E+00     0.000000E+00     251.079610
#     99     Es     0.000000E+00     0.000000E+00     0.000000E+00     0.000000E+00     254.088050
#
#
4.500  -0.4772  -0.4764  -0.4755  -0.4745  -0.4733  -0.4719  -0.4703  -0.4682  -0.4658  -0.4629  -0.4595  -0.4555  -0.4507  -0.4451  -0.4385  -0.4306  -0.4214  -0.4105  -0.3980  -0.3840  -0.3682  -0.3508  -0.3320  -0.3120  -0.2910  -0.2690  -0.2458  -0.2214  -0.1955  -0.1680  -0.1383  -0.1061  -0.0708  -0.0323   0.0101   0.0566   0.1077   0.1635   0.2241   0.2895   0.3599   0.4350   0.5146   0.5984   0.6860   0.7770   0.8710   0.9676   1.0663   1.1670   1.2692   1.3729   1.4777   1.5837   1.6906   1.7984   1.9070   2.0163   2.1263   2.2370   2.3479   2.4594   2.5714   2.6838   2.7963   2.9089   3.0219   3.1350   3.2480   3.3608   3.4732   3.5850   3.6962   3.8062   3.9146   4.0206   4.1244   4.2253   4.3225   4.4161   4.5056   4.5906   4.6712   4.7468   4.8171   4.8826   4.9424   4.9972   5.0474   5.0929   5.1340
4.450  -0.4759  -0.4757  -0.4754  -0.4750  -0.4744  -0.4737  -0.4728  -0.4715  -0.4697  -0.4675  -0.4647  -0.4613  -0.4571  -0.4521  -0.4462  -0.4393  -0.4314  -0.4224  -0.4123  -0.4009  -0.3883  -0.3747  -0.3599  -0.3438  -0.3267  -0.3083  -0.2887  -0.2675  -0.2446  -0.2195  -0.1921  -0.1617  -0.1282  -0.0909  -0.0496  -0.0040   0.0463   0.1013   0.1613   0.2262   0.2962   0.3709   0.4503   0.5340   0.6215   0.7125   0.8065   0.9032   1.0022   1.1031   1.2058   1.3096   1.4148   1.5210   1.6282   1.7362   1.8445   1.9534   2.0629   2.1730   2.2834   2.3938   2.5045   2.6155   2.7268   2.8383   2.9493   3.0604   3.1713   3.2820   3.3921   3.5011   3.6090   3.7154   3.8201   3.9225   4.0221   4.1187   4.2119   4.3014   4.3866   4.4673   4.5436   4.6150   4.6817   4.7435   4.8006   4.8533   4.9015   4.9457   4.9864
4.400  -0.4842  -0.4853  -0.4863  -0.4870  -0.4873  -0.4872  -0.4864  -0.4852  -0.4833  -0.4807  -0.4774  -0.4734  -0.4687  -0.4632  -0.4570  -0.4500  -0.4421  -0.4335  -0.4241  -0.4140  -0.4029  -0.3910  -0.3782  -0.3644  -0.3495  -0.3332  -0.3155  -0.2960  -0.2744  -0.2504  -0.2236  -0.1936  -0.1602  -0.1229  -0.0815  -0.0356   0.0148   0.0701   0.1302   0.1954   0.2654   0.3403   0.4196   0.5032   0.5905   0.6813   0.7750   0.8711   0.9694   1.0697   1.1716   1.2749   1.3791   1.4842   1.5902   1.6969   1.8042   1.9116   2.0193   2.1274   2.2356   2.3439   2.4522   2.5604   2.6685   2.7767   2.8848   2.9926   3.0997   3.2066   3.3127   3.4180   3.5220   3.6240   3.7239   3.8211   3.9151   4.0055   4.0917   4.1738   4.2512   4.3240   4.3921   4.4556   4.5145   4.5689   4.6195   4.6662   4.7092   4.7491   4.7860
4.350  -0.5022  -0.5019  -0.5013  -0.5003  -0.4991  -0.4975  -0.4956  -0.4931  -0.4902  -0.4868  -0.4830  -0.4788  -0.4741  -0.4689  -0.4633  -0.4572  -0.4506  -0.4435  -0.4358  -0.4274  -0.4182  -0.4081  -0.3969  -0.3844  -0.3705  -0.3549  -0.3374  -0.3177  -0.2954  -0.2704  -0.2424  -0.2109  -0.1757  -0.1366  -0.0934  -0.0459   0.0062   0.0630   0.1245   0.1906   0.2613   0.3367   0.4163   0.4999   0.5869   0.6771   0.7700   0.8654   0.9627   1.0616   1.1619   1.2634   1.3658   1.4689   1.5723   1.6761   1.7803   1.8847   1.9891   2.0935   2.1982   2.3029   2.4079   2.5132   2.6185   2.7239   2.8294   2.9347   3.0396   3.1435   3.2462   3.3471   3.4457   3.5416   3.6341   3.7228   3.8074   3.8875   3.9631   4.0340   4.1002   4.1619   4.2192   4.2723   4.3215   4.3671   4.4094   4.4486   4.4852   4.5194   4.5514
4.300  -0.5041  -0.5033  -0.5022  -0.5009  -0.4991  -0.4970  -0.4950  -0.4926  -0.4899  -0.4869  -0.4836  -0.4801  -0.4763  -0.4723  -0.4680  -0.4634  -0.4583  -0.4527  -0.4464  -0.4394  -0.4313  -0.4220  -0.4115  -0.3993  -0.3853  -0.3693  -0.3510  -0.3302  -0.3065  -0.2797  -0.2496  -0.2161  -0.1787  -0.1373  -0.0918  -0.0422   0.0118   0.0703   0.1332   0.2006   0.2723   0.3481   0.4279   0.5113   0.5979   0.6874   0.7794   0.8735   0.9693   1.0665   1.1649   1.2640   1.3639   1.4641   1.5648   1.6657   1.7669   1.8685   1.9706   2.0731   2.1761   2.2796   2.3835   2.4877   2.5920   2.6960   2.7991   2.9012   3.0016   3.0998   3.1953   3.2874   3.3759   3.4603   3.5403   3.6158   3.6867   3.7529   3.8145   3.8717   3.9248   3.9740   4.0195   4.0618   4.1011   4.1377   4.1719   4.2040   4.2343   4.2630   4.2903
4.250  -0.5045  -0.5035  -0.5023  -0.5010  -0.4995  -0.4979  -0.4961  -0.4941  -0.4920  -0.4898  -0.4875  -0.4850  -0.4824  -0.4795  -0.4763  -0.4726  -0.4683  -0.4634  -0.4576  -0.4507  -0.4425  -0.4328  -0.4216  -0.4085  -0.3935  -0.3759  -0.3557  -0.3328  -0.3068  -0.2774  -0.2446  -0.2081  -0.1678  -0.1236  -0.0753  -0.0227   0.0340   0.0951   0.1604   0.2300   0.3035   0.3807   0.4613   0.5449   0.6311   0.7196   0.8101   0.9023   0.9960   1.0908   1.1868   1.2839   1.3819   1.4808   1.5806   1.6813   1.7827   1.8846   1.9871   2.0899   2.1926   2.2952   2.3967   2.4974   2.5967   2.6941   2.7892   2.8815   2.9703   3.0556   3.1369   3.2139   3.2864   3.3543   3.4177   3.4767   3.5314   3.5822   3.6291   3.6726   3.7130   3.7504   3.7853   3.8180   3.8486   3.8775   3.9049   3.9312   3.9564   3.9807   4.0045
4.200  -0.5056  -0.5048  -0.5039  -0.5029  -0.5018  -0.5007  -0.4994  -0.4980  -0.4965  -0.4950  -0.4933  -0.4914  -0.4892  -0.4867  -0.4837  -0.4801  -0.4757  -0.4705  -0.4642  -0.4567  -0.4478  -0.4371  -0.4246  -0.4099  -0.3928  -0.3733  -0.3506  -0.3248  -0.2957  -0.2630  -0.2267  -0.1867  -0.1427  -0.0950  -0.0434   0.0121   0.0714   0.1346   0.2013   0.2718   0.3456   0.4226   0.5026   0.5855   0.6711   0.7591   0.8496   0.9421   1.0365   1.1326   1.2302   1.3289   1.4286   1.5290   1.6298   1.7307   1.8316   1.9322   2.0322   2.1308   2.2282   2.3238   2.4172   2.5079   2.5949   2.6787   2.7587   2.8344   2.9058   2.9727   3.0351   3.0931   3.1469   3.1967   3.2429   3.2855   3.3250   3.3616   3.3957   3.4274   3.4572   3.4852   3.5117   3.5369   3.5611   3.5844   3.6070   3.6290   3.6508   3.6724   3.6940
4.150  -0.5037  -0.5031  -0.5024  -0.5017  -0.5010  -0.5002  -0.4994  -0.4984  -0.4973  -0.4960  -0.4945  -0.4926  -0.4904  -0.4876  -0.4842  -0.4803  -0.4753  -0.4693  -0.4621  -0.4534  -0.4431  -0.4310  -0.4167  -0.4000  -0.3808  -0.3587  -0.3335  -0.3054  -0.2738  -0.2386  -0.1998  -0.1573  -0.1111  -0.0610  -0.0069   0.0511   0.1133   0.1794   0.2497   0.3238   0.4016   0.4831   0.5677   0.6552   0.7453   0.8375   0.9316   1.0270   1.1238   1.2214   1.3193   1.4174   1.5155   1.6131   1.7100   1.8057   1.8997   1.9916   2.0812   2.1680   2.2516   2.3311   2.4070   2.4786   2.5460   2.6090   2.6671   2.7215   2.7718   2.8183   2.8612   2.9009   2.9376   2.9717   3.0032   3.0326   3.0601   3.0860   3.1105   3.1338   3.1560   3.1775   3.1984   3.2187   3.2387   3.2586   3.2785   3.2984   3.3186   3.3391   3.3600
4.100  -0.5082  -0.5080  -0.5077  -0.5074  -0.5070  -0.5066  -0.5060  -0.5054  -0.5045  -0.5035  -0.5022  -0.5006  -0.4987  -0.4963  -0.4933  -0.4896  -0.4853  -0.4798  -0.4731  -0.4649  -0.4551  -0.4432  -0.4291  -0.4123  -0.3926  -0.3695  -0.3429  -0.3125  -0.2779  -0.2392  -0.1957  -0.1476  -0.0948  -0.0373   0.0248   0.0914   0.1621   0.2368   0.3152   0.3969   0.4816   0.5687   0.6581   0.7493   0.8419   0.9354   1.0295   1.1236   1.2175   1.3106   1.4028   1.4937   1.5823   1.6687   1.7524   1.8327   1.9096   1.9826   2.0515   2.1158   2.1763   2.2325   2.2846   2.3328   2.3770   2.4180   2.4559   2.4909   2.5234   2.5534   2.5815   2.6069   2.6315   2.6547   2.6768   2.6979   2.7182   2.7380   2.7572   2.7762   2.7949   2.8136   2.8322   2.8510   2.8701   2.8896   2.9095   2.9300   2.9511   2.9730   2.9955
4.050  -0.5092  -0.5095  -0.5099  -0.5103  -0.5107  -0.5112  -0.5117  -0.5122  -0.5126  -0.5129  -0.5130  -0.5128  -0.5121  -0.5107  -0.5085  -0.5053  -0.5008  -0.4947  -0.4872  -0.4773  -0.4650  -0.4500  -0.4320  -0.4107  -0.3858  -0.3572  -0.3244  -0.2876  -0.2464  -0.2007  -0.1508  -0.0960  -0.0365   0.0273   0.0953   0.1673   0.2428   0.3216   0.4031   0.4866   0.5721   0.6588   0.7464   0.8339   0.9213   1.0079   1.0931   1.1765   1.2574   1.3355   1.4103   1.4812   1.5486   1.6120   1.6713   1.7265   1.7778   1.8252   1.8691   1.9092   1.9465   1.9809   2.0127   2.0421   2.0691   2.0947   2.1186   2.1411   2.1624   2.1829   2.2025   2.2208   2.2391   2.2570   2.2747   2.2924   2.3100   2.3278   2.3457   2.3626   2.3809   2.3997   2.4191   2.4391   2.4598   2.4812   2.5033   2.5264   2.5503   2.5751   2.6006
4.000  -0.5318  -0.5339  -0.5359  -0.5377  -0.5392  -0.5403  -0.5411  -0.5414  -0.5411  -0.5403  -0.5389  -0.5368  -0.5338  -0.5299  -0.5250  -0.5189  -0.5113  -0.5020  -0.4908  -0.4775  -0.4620  -0.4434  -0.4216  -0.3966  -0.3679  -0.3355  -0.2991  -0.2586  -0.2138  -0.1649  -0.1118  -0.0546   0.0065   0.0716   0.1402   0.2116   0.2854   0.3609   0.4373   0.5141   0.5904   0.6655   0.7389   0.8099   0.8782   0.9428   1.0044   1.0622   1.1162   1.1665   1.2132   1.2563   1.2961   1.3329   1.3669   1.3981   1.4272   1.4544   1.4798   1.5038   1.5260   1.5473   1.5677   1.5873   1.6062   1.6246   1.6423   1.6601   1.6777   1.6953   1.7129   1.7306   1.7480   1.7662   1.7848   1.8038   1.8231   1.8432   1.8638   1.8851   1.9061   1.9288   1.9522   1.9764   2.0016   2.0276   2.0545   2.0824   2.1094   2.1390   2.1696
3.950  -0.5515  -0.5513  -0.5510  -0.5505  -0.5498  -0.5489  -0.5478  -0.5463  -0.5445  -0.5422  -0.5393  -0.5358  -0.5314  -0.5260  -0.5195  -0.5117  -0.5024  -0.4913  -0.4782  -0.4629  -0.4452  -0.4253  -0.4021  -0.3757  -0.3464  -0.3136  -0.2778  -0.2388  -0.1968  -0.1517  -0.1040  -0.0542  -0.0024   0.0508   0.1047   0.1589   0.2129   0.2657   0.3171   0.3664   0.4133   0.4578   0.4996   0.5388   0.5753   0.6093   0.6411   0.6705   0.6982   0.7241   0.7485   0.7711   0.7931   0.8140   0.8341   0.8534   0.8724   0.8909   0.9094   0.9275   0.9457   0.9639   0.9823   1.0010   1.0194   1.0387   1.0584   1.0785   1.0991   1.1204   1.1415   1.1637   1.1866   1.2100   1.2340   1.2587   1.2835   1.3095   1.3362   1.3637   1.3918   1.4207   1.4504   1.4800   1.5112   1.5433   1.5760   1.6098   1.6443   1.6797   1.7146
3.900  -0.5519  -0.5513  -0.5505  -0.5497  -0.5486  -0.5473  -0.5458  -0.5439  -0.5417  -0.5390  -0.5356  -0.5316  -0.5268  -0.5211  -0.5143  -0.5065  -0.4973  -0.4869  -0.4752  -0.4622  -0.4476  -0.4317  -0.4144  -0.3963  -0.3768  -0.3563  -0.3354  -0.3139  -0.2923  -0.2708  -0.2497  -0.2290  -0.2088  -0.1893  -0.1707  -0.1526  -0.1352  -0.1184  -0.1024  -0.0867  -0.0715  -0.0567  -0.0420  -0.0276  -0.0132   0.0011   0.0156   0.0302   0.0450   0.0602   0.0758   0.0918   0.1085   0.1256   0.1434   0.1620   0.1811   0.2009   0.2216   0.2431   0.2652   0.2877   0.3115   0.3360   0.3612   0.3872   0.4136   0.4409   0.4687   0.4973   0.5262   0.5558   0.5861   0.6170   0.6484   0.6805   0.7125   0.7457   0.7795   0.8139   0.8491   0.8843   0.9206   0.9575   0.9951   1.0335   1.0724   1.1116   1.1518   1.1926   1.2340
3.850  -0.5523  -0.5521  -0.5519  -0.5516  -0.5514  -0.5512  -0.5510  -0.5507  -0.5505  -0.5503  -0.5502  -0.5502  -0.5503  -0.5506  -0.5513  -0.5525  -0.5543  -0.5569  -0.5604  -0.5649  -0.5705  -0.5773  -0.5852  -0.5942  -0.6041  -0.6150  -0.6266  -0.6390  -0.6515  -0.6642  -0.6769  -0.6894  -0.7019  -0.7135  -0.7245  -0.7346  -0.7436  -0.7514  -0.7578  -0.7627  -0.7659  -0.7673  -0.7668  -0.7645  -0.7603  -0.7539  -0.7455  -0.7351  -0.7227  -0.7085  -0.6923  -0.6742  -0.6547  -0.6333  -0.6104  -0.5860  -0.5604  -0.5334  -0.5054  -0.4763  -0.4462  -0.4152  -0.3836  -0.3511  -0.3179  -0.2840  -0.2498  -0.2149  -0.1794  -0.1436  -0.1074  -0.0706  -0.0333   0.0043   0.0418   0.0806   0.1197   0.1594   0.1995   0.2401   0.2811   0.3227   0.3646   0.4069   0.4499   0.4933   0.5372   0.5816   0.6258   0.6710   0.7167
3.800  -0.5752  -0.5803  -0.5865  -0.5939  -0.6027  -0.6130  -0.6249  -0.6386  -0.6541  -0.6715  -0.6907  -0.7118  -0.7345  -0.7589  -0.7849  -0.8123  -0.8409  -0.8706  -0.9014  -0.9330  -0.9654  -0.9984  -1.0317  -1.0655  -1.0993  -1.1333  -1.1671  -1.2007  -1.2339  -1.2665  -1.2985  -1.3294  -1.3593  -1.3879  -1.4148  -1.4400  -1.4632  -1.4841  -1.5024  -1.5182  -1.5308  -1.5403  -1.5465  -1.5491  -1.5483  -1.5443  -1.5365  -1.5253  -1.5109  -1.4934  -1.4731  -1.4501  -1.4248  -1.3972  -1.3678  -1.3365  -1.3039  -1.2700  -1.2349  -1.1987  -1.1617  -1.1239  -1.0854  -1.0467  -1.0071  -0.9671  -0.9268  -0.8859  -0.8446  -0.8030  -0.7610  -0.7185  -0.6758  -0.6328  -0.5894  -0.5457  -0.5016  -0.4572  -0.4124  -0.3672  -0.3217  -0.2758  -0.2296  -0.1831  -0.1363  -0.0892  -0.0418   0.0058   0.0533   0.1014   0.1498
3.750  -0.7737  -0.8027  -0.8334  -0.8659  -0.8999  -0.9354  -0.9721  -1.0099  -1.0487  -1.0884  -1.1289  -1.1701  -1.2119  -1.2541  -1.2967  -1.3396  -1.3828  -1.4262  -1.4697  -1.5133  -1.5568  -1.6003  -1.6436  -1.6868  -1.7296  -1.7722  -1.8143  -1.8559  -1.8969  -1.9371  -1.9764  -2.0146  -2.0516  -2.0870  -2.1207  -2.1524  -2.1817  -2.2083  -2.2320  -2.2523  -2.2691  -2.2820  -2.2909  -2.2955  -2.2959  -2.2920  -2.2839  -2.2717  -2.2557  -2.2361  -2.2133  -2.1875  -2.1590  -2.1281  -2.0953  -2.0605  -2.0241  -1.9863  -1.9473  -1.9073  -1.8666  -1.8249  -1.7826  -1.7398  -1.6964  -1.6526  -1.6084  -1.5638  -1.5190  -1.4738  -1.4283  -1.3825  -1.3365  -1.2903  -1.2438  -1.1970  -1.1500  -1.1027  -1.0553  -1.0077  -0.9598  -0.9117  -0.8635  -0.8150  -0.7664  -0.7176  -0.6686  -0.6195  -0.5704  -0.5211  -0.4719
3.700  -1.3208  -1.3656  -1.4109  -1.4565  -1.5023  -1.5484  -1.5947  -1.6411  -1.6876  -1.7343  -1.7809  -1.8276  -1.8743  -1.9209  -1.9675  -2.0139  -2.0603  -2.1065  -2.1525  -2.1983  -2.2439  -2.2892  -2.3341  -2.3787  -2.4229  -2.4666  -2.5098  -2.5523  -2.5941  -2.6351  -2.6751  -2.7139  -2.7515  -2.7875  -2.8218  -2.8541  -2.8842  -2.9116  -2.9362  -2.9576  -2.9755  -2.9896  -2.9998  -3.0059  -3.0077  -3.0054  -2.9990  -2.9885  -2.9742  -2.9562  -2.9347  -2.9102  -2.8830  -2.8531  -2.8209  -2.7867  -2.7507  -2.7130  -2.6740  -2.6339  -2.5926  -2.5505  -2.5076  -2.4640  -2.4199  -2.3751  -2.3299  -2.2842  -2.2381  -2.1917  -2.1448  -2.0978  -2.0503  -2.0025  -1.9543  -1.9059  -1.8571  -1.8081  -1.7587  -1.7091  -1.6592  -1.6089  -1.5584  -1.5075  -1.4564  -1.4050  -1.3533  -1.3014  -1.2491  -1.1967  -1.1439
3.690  -1.4599  -1.5059  -1.5522  -1.5987  -1.6454  -1.6922  -1.7391  -1.7860  -1.8330  -1.8800  -1.9269  -1.9738  -2.0206  -2.0674  -2.1140  -2.1605  -2.2068  -2.2529  -2.2988  -2.3445  -2.3898  -2.4349  -2.4796  -2.5239  -2.5677  -2.6111  -2.6538  -2.6959  -2.7373  -2.7778  -2.8173  -2.8557  -2.8928  -2.9284  -2.9623  -2.9943  -3.0240  -3.0512  -3.0757  -3.0970  -3.1150  -3.1293  -3.1399  -3.1464  -3.1489  -3.1473  -3.1417  -3.1320  -3.1186  -3.1016  -3.0811  -3.0576  -3.0311  -3.0019  -2.9705  -2.9369  -2.9014  -2.8643  -2.8258  -2.7860  -2.7452  -2.7034  -2.6608  -2.6174  -2.5734  -2.5288  -2.4837  -2.4381  -2.3921  -2.3456  -2.2987  -2.2515  -2.2039  -2.1559  -2.1076  -2.0589  -2.0098  -1.9603  -1.9105  -1.8603  -1.8097  -1.7588  -1.7075  -1.6558  -1.6037  -1.5512  -1.4983  -1.4451  -1.3915  -1.3375  -1.2831
3.680  -1.6053  -1.6521  -1.6991  -1.7462  -1.7933  -1.8405  -1.8877  -1.9349  -1.9820  -2.0291  -2.0761  -2.1230  -2.1698  -2.2164  -2.2629  -2.3091  -2.3552  -2.4010  -2.4465  -2.4918  -2.5367  -2.5813  -2.6256  -2.6694  -2.7127  -2.7554  -2.7976  -2.8391  -2.8799  -2.9198  -2.9587  -2.9965  -3.0330  -3.0681  -3.1015  -3.1330  -3.1624  -3.1894  -3.2136  -3.2350  -3.2530  -3.2677  -3.2786  -3.2857  -3.2889  -3.2882  -3.2835  -3.2749  -3.2625  -3.2465  -3.2272  -3.2046  -3.1791  -3.1509  -3.1202  -3.0873  -3.0525  -3.0160  -2.9780  -2.9387  -2.8982  -2.8567  -2.8144  -2.7713  -2.7274  -2.6830  -2.6380  -2.5924  -2.5464  -2.4999  -2.4530  -2.4056  -2.3577  -2.3095  -2.2608  -2.2116  -2.1621  -2.1121  -2.0616  -2.0107  -1.9592  -1.9073  -1.8548  -1.8019  -1.7484  -1.6944  -1.6399  -1.5849  -1.5294  -1.4733  -1.4167
3.670  -1.7563  -1.8036  -1.8509  -1.8983  -1.9457  -1.9930  -2.0403  -2.0875  -2.1346  -2.1817  -2.2285  -2.2753  -2.3218  -2.3682  -2.4143  -2.4602  -2.5058  -2.5512  -2.5963  -2.6410  -2.6854  -2.7293  -2.7729  -2.8161  -2.8587  -2.9008  -2.9422  -2.9830  -3.0230  -3.0622  -3.1004  -3.1375  -3.1733  -3.2078  -3.2406  -3.2717  -3.3006  -3.3273  -3.3515  -3.3728  -3.3910  -3.4060  -3.4174  -3.4252  -3.4292  -3.4294  -3.4258  -3.4184  -3.4073  -3.3926  -3.3744  -3.3531  -3.3287  -3.3015  -3.2717  -3.2397  -3.2056  -3.1697  -3.1323  -3.0934  -3.0533  -3.0121  -2.9700  -2.9271  -2.8834  -2.8390  -2.7940  -2.7484  -2.7022  -2.6555  -2.6083  -2.5606  -2.5124  -2.4637  -2.4144  -2.3646  -2.3142  -2.2633  -2.2118  -2.1597  -2.1069  -2.0536  -1.9995  -1.9448  -1.8894  -1.8333  -1.7765  -1.7190  -1.6609  -1.6020  -1.5426
3.660  -1.9122  -1.9597  -2.0072  -2.0546  -2.1020  -2.1492  -2.1964  -2.2435  -2.2904  -2.3372  -2.3837  -2.4301  -2.4763  -2.5222  -2.5679  -2.6133  -2.6584  -2.7032  -2.7476  -2.7917  -2.8354  -2.8786  -2.9215  -2.9638  -3.0056  -3.0469  -3.0875  -3.1274  -3.1666  -3.2050  -3.2423  -3.2787  -3.3138  -3.3476  -3.3798  -3.4103  -3.4389  -3.4653  -3.4892  -3.5106  -3.5290  -3.5444  -3.5565  -3.5651  -3.5701  -3.5714  -3.5691  -3.5630  -3.5533  -3.5400  -3.5233  -3.5033  -3.4801  -3.4541  -3.4254  -3.3943  -3.3611  -3.3259  -3.2889  -3.2505  -3.2108  -3.1699  -3.1279  -3.0851  -3.0414  -2.9969  -2.9517  -2.9059  -2.8594  -2.8123  -2.7646  -2.7163  -2.6674  -2.6178  -2.5675  -2.5166  -2.4650  -2.4126  -2.3595  -2.3056  -2.2509  -2.1954  -2.1390  -2.0817  -2.0235  -1.9645  -1.9047  -1.8440  -1.7825  -1.7204  -1.6575
3.650  -2.0722  -2.1197  -2.1671  -2.2144  -2.2616  -2.3087  -2.3556  -2.4023  -2.4488  -2.4952  -2.5413  -2.5872  -2.6328  -2.6782  -2.7233  -2.7681  -2.8125  -2.8566  -2.9003  -2.9435  -2.9864  -3.0289  -3.0709  -3.1124  -3.1533  -3.1937  -3.2334  -3.2724  -3.3107  -3.3481  -3.3846  -3.4201  -3.4545  -3.4875  -3.5191  -3.5491  -3.5772  -3.6033  -3.6272  -3.6486  -3.6673  -3.6831  -3.6959  -3.7054  -3.7115  -3.7141  -3.7131  -3.7085  -3.7003  -3.6885  -3.6734  -3.6549  -3.6332  -3.6085  -3.5810  -3.5510  -3.5186  -3.4842  -3.4479  -3.4100  -3.3705  -3.3299  -3.2880  -3.2451  -3.2013  -3.1566  -3.1110  -3.0647  -3.0176  -2.9698  -2.9212  -2.8719  -2.8217  -2.7708  -2.7190  -2.6663  -2.6128  -2.5582  -2.5027  -2.4462  -2.3886  -2.3300  -2.2703  -2.2096  -2.1478  -2.0850  -2.0214  -1.9569  -1.8917  -1.8260  -1.7598
3.640  -2.2368  -2.2841  -2.3313  -2.3783  -2.4252  -2.4719  -2.5184  -2.5647  -2.6107  -2.6565  -2.7021  -2.7474  -2.7923  -2.8370  -2.8814  -2.9254  -2.9690  -3.0123  -3.0552  -3.0976  -3.1396  -3.1812  -3.2222  -3.2628  -3.3027  -3.3421  -3.3808  -3.4188  -3.4561  -3.4926  -3.5281  -3.5627  -3.5962  -3.6284  -3.6593  -3.6887  -3.7163  -3.7422  -3.7659  -3.7874  -3.8065  -3.8228  -3.8363  -3.8468  -3.8541  -3.8581  -3.8587  -3.8559  -3.8495  -3.8395  -3.8262  -3.8093  -3.7892  -3.7660  -3.7399  -3.7111  -3.6797  -3.6461  -3.6105  -3.5731  -3.5341  -3.4936  -3.4518  -3.4088  -3.3647  -3.3196  -3.2734  -3.2263  -3.1783  -3.1293  -3.0794  -3.0285  -2.9765  -2.9235  -2.8694  -2.8142  -2.7578  -2.7001  -2.6412  -2.5811  -2.5196  -2.4570  -2.3931  -2.3281  -2.2621  -2.1952  -2.1276  -2.0595  -1.9910  -1.9223  -1.8536
3.630  -2.4045  -2.4515  -2.4983  -2.5449  -2.5913  -2.6375  -2.6834  -2.7291  -2.7745  -2.8196  -2.8644  -2.9090  -2.9532  -2.9970  -3.0405  -3.0836  -3.1264  -3.1687  -3.2106  -3.2521  -3.2931  -3.3336  -3.3736  -3.4131  -3.4521  -3.4904  -3.5281  -3.5651  -3.6014  -3.6368  -3.6714  -3.7051  -3.7377  -3.7691  -3.7993  -3.8281  -3.8554  -3.8809  -3.9046  -3.9262  -3.9456  -3.9625  -3.9768  -3.9883  -3.9969  -4.0023  -4.0044  -4.0032  -3.9986  -3.9905  -3.9788  -3.9638  -3.9454  -3.9237  -3.8990  -3.8714  -3.8411  -3.8084  -3.7735  -3.7366  -3.6978  -3.6574  -3.6154  -3.5720  -3.5273  -3.4813  -3.4341  -3.3856  -3.3360  -3.2851  -3.2330  -3.1796  -3.1249  -3.0688  -3.0112  -2.9522  -2.8918  -2.8298  -2.7664  -2.7016  -2.6354  -2.5680  -2.4995  -2.4302  -2.3601  -2.2896  -2.2188  -2.1479  -2.0772  -2.0070  -1.9373
3.620  -2.5752  -2.6217  -2.6680  -2.7140  -2.7597  -2.8052  -2.8505  -2.8954  -2.9400  -2.9843  -3.0283  -3.0719  -3.1152  -3.1581  -3.2006  -3.2427  -3.2844  -3.3257  -3.3665  -3.4069  -3.4468  -3.4862  -3.5251  -3.5635  -3.6013  -3.6385  -3.6750  -3.7109  -3.7461  -3.7806  -3.8142  -3.8469  -3.8786  -3.9093  -3.9388  -3.9670  -3.9938  -4.0191  -4.0426  -4.0643  -4.0840  -4.1015  -4.1165  -4.1290  -4.1386  -4.1454  -4.1490  -4.1494  -4.1464  -4.1400  -4.1301  -4.1167  -4.0999  -4.0798  -4.0565  -4.0302  -4.0010  -3.9691  -3.9348  -3.8983  -3.8596  -3.8190  -3.7765  -3.7324  -3.6865  -3.6391  -3.5901  -3.5396  -3.4874  -3.4337  -3.3783  -3.3212  -3.2625  -3.2020  -3.1398  -3.0759  -3.0103  -2.9432  -2.8747  -2.8049  -2.7340  -2.6623  -2.5899  -2.5171  -2.4443  -2.3715  -2.2990  -2.2270  -2.1558  -2.0855  -2.0164
3.610  -2.7485  -2.7943  -2.8399  -2.8852  -2.9302  -2.9749  -3.0192  -3.0633  -3.1070  -3.1503  -3.1933  -3.2359  -3.2782  -3.3200  -3.3614  -3.4024  -3.4430  -3.4831  -3.5227  -3.5619  -3.6006  -3.6388  -3.6765  -3.7136  -3.7502  -3.7862  -3.8216  -3.8563  -3.8904  -3.9237  -3.9562  -3.9880  -4.0188  -4.0486  -4.0774  -4.1050  -4.1313  -4.1563  -4.1797  -4.2014  -4.2213  -4.2391  -4.2547  -4.2679  -4.2785  -4.2863  -4.2912  -4.2929  -4.2913  -4.2863  -4.2779  -4.2660  -4.2507  -4.2319  -4.2099  -4.1847  -4.1565  -4.1253  -4.0915  -4.0551  -4.0162  -3.9751  -3.9317  -3.8861  -3.8385  -3.7888  -3.7371  -3.6833  -3.6275  -3.5696  -3.5096  -3.4476  -3.3837  -3.3178  -3.2501  -3.1807  -3.1099  -3.0378  -2.9648  -2.8910  -2.8167  -2.7421  -2.6676  -2.5932  -2.5193  -2.4461  -2.3736  -2.3022  -2.2319  -2.1630  -2.0955
3.600  -2.9239  -2.9690  -3.0137  -3.0581  -3.1022  -3.1459  -3.1893  -3.2323  -3.2750  -3.3173  -3.3591  -3.4006  -3.4417  -3.4823  -3.5225  -3.5623  -3.6016  -3.6405  -3.6788  -3.7167  -3.7541  -3.7910  -3.8274  -3.8633  -3.8986  -3.9333  -3.9675  -4.0010  -4.0338  -4.0660  -4.0975  -4.1282  -4.1580  -4.1870  -4.2149  -4.2418  -4.2676  -4.2921  -4.3152  -4.3367  -4.3565  -4.3745  -4.3903  -4.4039  -4.4150  -4.4235  -4.4291  -4.4316  -4.4310  -4.4271  -4.4197  -4.4089  -4.3947  -4.3770  -4.3559  -4.3315  -4.3039  -4.2732  -4.2394  -4.2027  -4.1631  -4.1207  -4.0756  -4.0278  -3.9773  -3.9242  -3.8686  -3.8103  -3.7496  -3.6865  -3.6211  -3.5536  -3.4841  -3.4129  -3.3403  -3.2665  -3.1918  -3.1165  -3.0409  -2.9652  -2.8896  -2.8144  -2.7396  -2.6655  -2.5923  -2.5200  -2.4490  -2.3792  -2.3109  -2.2441  -2.1790
3.590  -3.1008  -3.1449  -3.1886  -3.2320  -3.2750  -3.3177  -3.3599  -3.4018  -3.4433  -3.4844  -3.5250  -3.5652  -3.6050  -3.6443  -3.6832  -3.7216  -3.7596  -3.7971  -3.8341  -3.8707  -3.9067  -3.9422  -3.9772  -4.0117  -4.0456  -4.0790  -4.1118  -4.1440  -4.1756  -4.2066  -4.2368  -4.2663  -4.2951  -4.3230  -4.3499  -4.3759  -4.4008  -4.4245  -4.4469  -4.4678  -4.4872  -4.5047  -4.5202  -4.5335  -4.5445  -4.5529  -4.5586  -4.5613  -4.5609  -4.5573  -4.5504  -4.5401  -4.5263  -4.5091  -4.4885  -4.4644  -4.4368  -4.4058  -4.3714  -4.3337  -4.2925  -4.2481  -4.2003  -4.1492  -4.0949  -4.0374  -3.9769  -3.9136  -3.8477  -3.7794  -3.7090  -3.6368  -3.5632  -3.4886  -3.4131  -3.3372  -3.2610  -3.1848  -3.1088  -3.0332  -2.9581  -2.8837  -2.8101  -2.7374  -2.6659  -2.5955  -2.5265  -2.4589  -2.3928  -2.3283  -2.2654
3.580  -3.2787  -3.3217  -3.3643  -3.4065  -3.4483  -3.4897  -3.5308  -3.5713  -3.6115  -3.6512  -3.6905  -3.7294  -3.7678  -3.8057  -3.8432  -3.8802  -3.9167  -3.9528  -3.9883  -4.0234  -4.0580  -4.0921  -4.1257  -4.1587  -4.1912  -4.2232  -4.2546  -4.2854  -4.3156  -4.3452  -4.3741  -4.4023  -4.4298  -4.4564  -4.4821  -4.5069  -4.5306  -4.5532  -4.5744  -4.5942  -4.6124  -4.6289  -4.6434  -4.6558  -4.6659  -4.6735  -4.6784  -4.6805  -4.6795  -4.6754  -4.6680  -4.6573  -4.6431  -4.6255  -4.6043  -4.5794  -4.5509  -4.5186  -4.4826  -4.4427  -4.3989  -4.3513  -4.2999  -4.2449  -4.1863  -4.1245  -4.0596  -3.9921  -3.9223  -3.8507  -3.7776  -3.7033  -3.6283  -3.5528  -3.4770  -3.4013  -3.3257  -3.2505  -3.1757  -3.1015  -3.0281  -2.9555  -2.8839  -2.8133  -2.7439  -2.6757  -2.6089  -2.5434  -2.4793  -2.4166  -2.3554
3.570  -3.4570  -3.4988  -3.5401  -3.5810  -3.6215  -3.6615  -3.7011  -3.7403  -3.7791  -3.8174  -3.8552  -3.8926  -3.9295  -3.9659  -4.0019  -4.0374  -4.0724  -4.1070  -4.1410  -4.1746  -4.2076  -4.2402  -4.2722  -4.3038  -4.3348  -4.3652  -4.3951  -4.4244  -4.4531  -4.4812  -4.5086  -4.5353  -4.5611  -4.5862  -4.6104  -4.6335  -4.6556  -4.6765  -4.6961  -4.7142  -4.7307  -4.7455  -4.7583  -4.7690  -4.7774  -4.7832  -4.7865  -4.7869  -4.7843  -4.7786  -4.7697  -4.7574  -4.7416  -4.7223  -4.6992  -4.6724  -4.6417  -4.6069  -4.5682  -4.5253  -4.4784  -4.4274  -4.3727  -4.3144  -4.2527  -4.1882  -4.1211  -4.0520  -3.9811  -3.9089  -3.8359  -3.7621  -3.6880  -3.6138  -3.5395  -3.4655  -3.3918  -3.3185  -3.2458  -3.1738  -3.1026  -3.0322  -2.9627  -2.8943  -2.8269  -2.7606  -2.6954  -2.6313  -2.5684  -2.5066  -2.4461
3.560  -3.6351  -3.6754  -3.7153  -3.7548  -3.7938  -3.8324  -3.8705  -3.9082  -3.9454  -3.9822  -4.0185  -4.0543  -4.0896  -4.1245  -4.1589  -4.1928  -4.2262  -4.2592  -4.2916  -4.3236  -4.3550  -4.3860  -4.4164  -4.4463  -4.4757  -4.5045  -4.5327  -4.5603  -4.5872  -4.6135  -4.6391  -4.6639  -4.6878  -4.7109  -4.7331  -4.7542  -4.7741  -4.7928  -4.8101  -4.8259  -4.8401  -4.8524  -4.8627  -4.8708  -4.8766  -4.8798  -4.8804  -4.8781  -4.8728  -4.8643  -4.8526  -4.8374  -4.8188  -4.7965  -4.7705  -4.7408  -4.7071  -4.6695  -4.6280  -4.5825  -4.5333  -4.4804  -4.4241  -4.3647  -4.3026  -4.2380  -4.1715  -4.1034  -4.0340  -3.9636  -3.8925  -3.8210  -3.7492  -3.6773  -3.6055  -3.5339  -3.4626  -3.3917  -3.3213  -3.2516  -3.1825  -3.1141  -3.0465  -2.9795  -2.9133  -2.8479  -2.7832  -2.7194  -2.6564  -2.5944  -2.5336
3.550  -3.8122  -3.8511  -3.8894  -3.9273  -3.9648  -4.0018  -4.0383  -4.0744  -4.1100  -4.1451  -4.1797  -4.2139  -4.2476  -4.2808  -4.3136  -4.3458  -4.3775  -4.4088  -4.4395  -4.4698  -4.4995  -4.5287  -4.5573  -4.5854  -4.6129  -4.6398  -4.6660  -4.6916  -4.7165  -4.7406  -4.7640  -4.7865  -4.8081  -4.8288  -4.8484  -4.8669  -4.8841  -4.9000  -4.9144  -4.9271  -4.9381  -4.9471  -4.9541  -4.9587  -4.9610  -4.9606  -4.9574  -4.9513  -4.9422  -4.9299  -4.9144  -4.8956  -4.8735  -4.8479  -4.8189  -4.7865  -4.7506  -4.7112  -4.6683  -4.6221  -4.5726  -4.5201  -4.4647  -4.4067  -4.3465  -4.2842  -4.2203  -4.1549  -4.0884  -4.0210  -3.9529  -3.8842  -3.8153  -3.7462  -3.6770  -3.6080  -3.5391  -3.4705  -3.4023  -3.3343  -3.2667  -3.1994  -3.1324  -3.0656  -2.9992  -2.9332  -2.8676  -2.8027  -2.7386  -2.6757  -2.6141
3.540  -3.9878  -4.0250  -4.0617  -4.0980  -4.1337  -4.1690  -4.2039  -4.2382  -4.2721  -4.3055  -4.3385  -4.3709  -4.4028  -4.4343  -4.4652  -4.4957  -4.5256  -4.5551  -4.5839  -4.6123  -4.6400  -4.6672  -4.6938  -4.7197  -4.7450  -4.7696  -4.7935  -4.8167  -4.8391  -4.8606  -4.8813  -4.9011  -4.9198  -4.9374  -4.9539  -4.9691  -4.9829  -4.9952  -5.0058  -5.0147  -5.0217  -5.0266  -5.0293  -5.0296  -5.0273  -5.0224  -5.0148  -5.0044  -4.9911  -4.9749  -4.9558  -4.9338  -4.9090  -4.8812  -4.8506  -4.8171  -4.7807  -4.7415  -4.6994  -4.6545  -4.6068  -4.5566  -4.5040  -4.4491  -4.3922  -4.3334  -4.2730  -4.2111  -4.1481  -4.0840  -4.0191  -3.9535  -3.8875  -3.8211  -3.7545  -3.6877  -3.6207  -3.5536  -3.4864  -3.4190  -3.3513  -3.2835  -3.2154  -3.1471  -3.0789  -3.0109  -2.9434  -2.8768  -2.8114  -2.7476  -2.6858
3.530  -4.1611  -4.1965  -4.2315  -4.2660  -4.3000  -4.3335  -4.3666  -4.3991  -4.4312  -4.4628  -4.4939  -4.5244  -4.5545  -4.5840  -4.6130  -4.6415  -4.6694  -4.6967  -4.7234  -4.7495  -4.7750  -4.7998  -4.8239  -4.8473  -4.8700  -4.8919  -4.9130  -4.9333  -4.9526  -4.9710  -4.9884  -5.0047  -5.0198  -5.0337  -5.0462  -5.0573  -5.0669  -5.0748  -5.0809  -5.0851  -5.0872  -5.0872  -5.0850  -5.0806  -5.0737  -5.0645  -5.0529  -5.0389  -5.0225  -5.0037  -4.9826  -4.9591  -4.9333  -4.9053  -4.8749  -4.8422  -4.8072  -4.7698  -4.7300  -4.6879  -4.6434  -4.5966  -4.5476  -4.4965  -4.4434  -4.3885  -4.3318  -4.2736  -4.2140  -4.1532  -4.0914  -4.0287  -3.9652  -3.9010  -3.8360  -3.7704  -3.7040  -3.6368  -3.5688  -3.5000  -3.4303  -3.3600  -3.2891  -3.2180  -3.1470  -3.0765  -3.0071  -2.9392  -2.8733  -2.8097  -2.7488
3.520  -4.3313  -4.3649  -4.3980  -4.4307  -4.4628  -4.4944  -4.5256  -4.5562  -4.5863  -4.6159  -4.6449  -4.6734  -4.7013  -4.7287  -4.7554  -4.7816  -4.8070  -4.8319  -4.8560  -4.8795  -4.9022  -4.9242  -4.9454  -4.9657  -4.9852  -5.0039  -5.0215  -5.0382  -5.0538  -5.0682  -5.0815  -5.0936  -5.1043  -5.1135  -5.1213  -5.1275  -5.1321  -5.1349  -5.1359  -5.1351  -5.1325  -5.1280  -5.1216  -5.1133  -5.1032  -5.0911  -5.0772  -5.0615  -5.0439  -5.0244  -5.0032  -4.9801  -4.9552  -4.9284  -4.8998  -4.8692  -4.8367  -4.8022  -4.7656  -4.7268  -4.6860  -4.6429  -4.5977  -4.5505  -4.5011  -4.4499  -4.3968  -4.3420  -4.2856  -4.2277  -4.1684  -4.1077  -4.0456  -3.9822  -3.9173  -3.8509  -3.7829  -3.7134  -3.6424  -3.5701  -3.4967  -3.4225  -3.3481  -3.2739  -3.2004  -3.1283  -3.0581  -2.9904  -2.9255  -2.8637  -2.8051
3.510  -4.4977  -4.5294  -4.5605  -4.5911  -4.6212  -4.6507  -4.6798  -4.7082  -4.7361  -4.7634  -4.7900  -4.8161  -4.8415  -4.8662  -4.8903  -4.9136  -4.9362  -4.9581  -4.9791  -4.9994  -5.0188  -5.0373  -5.0549  -5.0715  -5.0871  -5.1016  -5.1150  -5.1272  -5.1382  -5.1479  -5.1563  -5.1633  -5.1688  -5.1730  -5.1756  -5.1768  -5.1765  -5.1747  -5.1716  -5.1670  -5.1610  -5.1536  -5.1449  -5.1348  -5.1233  -5.1105  -5.0963  -5.0807  -5.0637  -5.0452  -5.0253  -5.0039  -4.9810  -4.9565  -4.9304  -4.9026  -4.8730  -4.8416  -4.8083  -4.7729  -4.7355  -4.6960  -4.6544  -4.6106  -4.5647  -4.5167  -4.4667  -4.4147  -4.3606  -4.3045  -4.2463  -4.1860  -4.1233  -4.0584  -3.9911  -3.9214  -3.8496  -3.7757  -3.7001  -3.6232  -3.5456  -3.4677  -3.3904  -3.3142  -3.2398  -3.1678  -3.0988  -3.0331  -2.9710  -2.9124  -2.8572
3.500  -4.6592  -4.6887  -4.7176  -4.7459  -4.7737  -4.8008  -4.8273  -4.8532  -4.8784  -4.9029  -4.9268  -4.9499  -4.9722  -4.9938  -5.0147  -5.0347  -5.0538  -5.0720  -5.0893  -5.1056  -5.1209  -5.1351  -5.1483  -5.1602  -5.1710  -5.1806  -5.1889  -5.1960  -5.2018  -5.2063  -5.2095  -5.2115  -5.2124  -5.2121  -5.2107  -5.2082  -5.2047  -5.2003  -5.1949  -5.1886  -5.1813  -5.1731  -5.1640  -5.1540  -5.1430  -5.1310  -5.1180  -5.1038  -5.0885  -5.0720  -5.0543  -5.0352  -5.0147  -4.9928  -4.9694  -4.9443  -4.9175  -4.8890  -4.8586  -4.8262  -4.7918  -4.7552  -4.7166  -4.6757  -4.6325  -4.5869  -4.5389  -4.4882  -4.4348  -4.3784  -4.3189  -4.2563  -4.1904  -4.1214  -4.0493  -3.9745  -3.8973  -3.8183  -3.7379  -3.6569  -3.5760  -3.4960  -3.4176  -3.3415  -3.2685  -3.1989  -3.1330  -3.0711  -3.0130  -2.9585  -2.9074
3.490  -4.8141  -4.8410  -4.8672  -4.8928  -4.9178  -4.9420  -4.9655  -4.9882  -5.0102  -5.0314  -5.0518  -5.0714  -5.0900  -5.1077  -5.1245  -5.1403  -5.1550  -5.1686  -5.1812  -5.1925  -5.2027  -5.2117  -5.2195  -5.2261  -5.2315  -5.2358  -5.2389  -5.2409  -5.2419  -5.2420  -5.2412  -5.2396  -5.2373  -5.2342  -5.2305  -5.2262  -5.2213  -5.2158  -5.2098  -5.2033  -5.1962  -5.1886  -5.1803  -5.1714  -5.1619  -5.1515  -5.1404  -5.1283  -5.1152  -5.1011  -5.0857  -5.0691  -5.0511  -5.0316  -5.0107  -4.9881  -4.9638  -4.9377  -4.9098  -4.8800  -4.8481  -4.8140  -4.7775  -4.7386  -4.6969  -4.6522  -4.6042  -4.5527  -4.4974  -4.4380  -4.3745  -4.3069  -4.2354  -4.1604  -4.0822  -4.0015  -3.9189  -3.8351  -3.7509  -3.6673  -3.5851  -3.5052  -3.4283  -3.3550  -3.2856  -3.2204  -3.1594  -3.1023  -3.0491  -2.9992  -2.9525
3.480  -4.9595  -4.9833  -5.0064  -5.0286  -5.0501  -5.0708  -5.0906  -5.1095  -5.1276  -5.1446  -5.1607  -5.1757  -5.1897  -5.2026  -5.2143  -5.2248  -5.2342  -5.2424  -5.2495  -5.2554  -5.2601  -5.2638  -5.2665  -5.2682  -5.2690  -5.2690  -5.2683  -5.2670  -5.2651  -5.2626  -5.2597  -5.2564  -5.2528  -5.2488  -5.2445  -5.2400  -5.2352  -5.2302  -5.2250  -5.2194  -5.2136  -5.2074  -5.2009  -5.1939  -5.1863  -5.1781  -5.1692  -5.1594  -5.1486  -5.1367  -5.1236  -5.1091  -5.0933  -5.0759  -5.0569  -5.0363  -5.0140  -4.9898  -4.9638  -4.9356  -4.9052  -4.8722  -4.8365  -4.7976  -4.7552  -4.7088  -4.6580  -4.6025  -4.5421  -4.4768  -4.4068  -4.3324  -4.2542  -4.1727  -4.0888  -4.0030  -3.9164  -3.8299  -3.7446  -3.6613  -3.5811  -3.5044  -3.4318  -3.3635  -3.2995  -3.2399  -3.1843  -3.1326  -3.0844  -3.0393  -2.9970
3.470  -5.0917  -5.1117  -5.1308  -5.1490  -5.1662  -5.1824  -5.1976  -5.2118  -5.2248  -5.2367  -5.2474  -5.2570  -5.2654  -5.2727  -5.2788  -5.2839  -5.2879  -5.2908  -5.2929  -5.2941  -5.2946  -5.2943  -5.2935  -5.2921  -5.2903  -5.2881  -5.2855  -5.2827  -5.2796  -5.2764  -5.2730  -5.2696  -5.2661  -5.2625  -5.2589  -5.2553  -5.2517  -5.2480  -5.2443  -5.2405  -5.2365  -5.2323  -5.2278  -5.2229  -5.2175  -5.2114  -5.2046  -5.1969  -5.1880  -5.1780  -5.1667  -5.1540  -5.1397  -5.1239  -5.1064  -5.0872  -5.0660  -5.0429  -5.0175  -4.9896  -4.9589  -4.9250  -4.8876  -4.8460  -4.7997  -4.7483  -4.6915  -4.6291  -4.5613  -4.4884  -4.4110  -4.3298  -4.2455  -4.1589  -4.0708  -3.9824  -3.8947  -3.8089  -3.7259  -3.6463  -3.5708  -3.4997  -3.4329  -3.3707  -3.3128  -3.2590  -3.2092  -3.1629  -3.1198  -3.0795  -3.0415
3.460  -5.2056  -5.2208  -5.2350  -5.2480  -5.2599  -5.2707  -5.2803  -5.2888  -5.2961  -5.3023  -5.3075  -5.3116  -5.3147  -5.3169  -5.3184  -5.3190  -5.3191  -5.3185  -5.3174  -5.3159  -5.3140  -5.3118  -5.3094  -5.3068  -5.3040  -5.3011  -5.2982  -5.2953  -5.2925  -5.2897  -5.2870  -5.2844  -5.2820  -5.2797  -5.2776  -5.2755  -5.2736  -5.2717  -5.2699  -5.2681  -5.2661  -5.2639  -5.2614  -5.2584  -5.2549  -5.2506  -5.2454  -5.2393  -5.2320  -5.2234  -5.2134  -5.2019  -5.1888  -5.1739  -5.1571  -5.1382  -5.1170  -5.0932  -5.0665  -5.0366  -5.0031  -4.9655  -4.9232  -4.8756  -4.8223  -4.7631  -4.6979  -4.6272  -4.5514  -4.4712  -4.3875  -4.3010  -4.2126  -4.1233  -4.0344  -3.9468  -3.8617  -3.7799  -3.7019  -3.6282  -3.5589  -3.4942  -3.4340  -3.3782  -3.3267  -3.2791  -3.2351  -3.1943  -3.1563  -3.1207  -3.0870
3.450  -5.2947  -5.3042  -5.3126  -5.3198  -5.3260  -5.3311  -5.3352  -5.3383  -5.3406  -5.3421  -5.3429  -5.3430  -5.3426  -5.3417  -5.3404  -5.3387  -5.3368  -5.3346  -5.3322  -5.3296  -5.3270  -5.3243  -5.3217  -5.3191  -5.3166  -5.3142  -5.3120  -5.3100  -5.3082  -5.3066  -5.3053  -5.3042  -5.3033  -5.3027  -5.3024  -5.3022  -5.3022  -5.3022  -5.3023  -5.3022  -5.3020  -5.3015  -5.3006  -5.2991  -5.2970  -5.2940  -5.2901  -5.2852  -5.2790  -5.2714  -5.2622  -5.2513  -5.2385  -5.2234  -5.2058  -5.1854  -5.1619  -5.1351  -5.1044  -5.0697  -5.0303  -4.9858  -4.9355  -4.8792  -4.8167  -4.7484  -4.6746  -4.5962  -4.5138  -4.4283  -4.3405  -4.2514  -4.1620  -4.0736  -3.9872  -3.9038  -3.8238  -3.7480  -3.6764  -3.6094  -3.5471  -3.4894  -3.4363  -3.3874  -3.3426  -3.3014  -3.2634  -3.2280  -3.1950  -3.1639  -3.1342
3.440  -5.3547  -5.3587  -5.3618  -5.3641  -5.3655  -5.3663  -5.3665  -5.3662  -5.3654  -5.3642  -5.3627  -5.3608  -5.3588  -5.3565  -5.3542  -5.3517  -5.3492  -5.3467  -5.3442  -5.3418  -5.3395  -5.3374  -5.3355  -5.3338  -5.3323  -5.3311  -5.3302  -5.3296  -5.3293  -5.3293  -5.3297  -5.3304  -5.3313  -5.3326  -5.3340  -5.3356  -5.3372  -5.3389  -5.3405  -5.3419  -5.3430  -5.3438  -5.3440  -5.3437  -5.3426  -5.3407  -5.3377  -5.3335  -5.3278  -5.3205  -5.3111  -5.2995  -5.2852  -5.2678  -5.2471  -5.2226  -5.1941  -5.1613  -5.1238  -5.0812  -5.0331  -4.9790  -4.9188  -4.8527  -4.7810  -4.7046  -4.6240  -4.5401  -4.4537  -4.3654  -4.2765  -4.1880  -4.1010  -4.0165  -3.9351  -3.8575  -3.7841  -3.7151  -3.6509  -3.5916  -3.5370  -3.4872  -3.4417  -3.4001  -3.3622  -3.3273  -3.2950  -3.2648  -3.2364  -3.2093  -3.1833
3.430  -5.3895  -5.3896  -5.3893  -5.3886  -5.3874  -5.3860  -5.3843  -5.3823  -5.3802  -5.3780  -5.3756  -5.3733  -5.3709  -5.3685  -5.3662  -5.3640  -5.3619  -5.3600  -5.3583  -5.3568  -5.3556  -5.3546  -5.3539  -5.3536  -5.3536  -5.3539  -5.3546  -5.3557  -5.3571  -5.3589  -5.3610  -5.3634  -5.3660  -5.3688  -5.3718  -5.3748  -5.3777  -5.3806  -5.3834  -5.3859  -5.3881  -5.3898  -5.3910  -5.3915  -5.3911  -5.3897  -5.3869  -5.3826  -5.3762  -5.3676  -5.3561  -5.3414  -5.3231  -5.3007  -5.2739  -5.2425  -5.2061  -5.1646  -5.1176  -5.0649  -5.0062  -4.9417  -4.8719  -4.7973  -4.7186  -4.6365  -4.5516  -4.4648  -4.3769  -4.2888  -4.2018  -4.1167  -4.0344  -3.9555  -3.8805  -3.8100  -3.7442  -3.6835  -3.6279  -3.5772  -3.5313  -3.4898  -3.4521  -3.4178  -3.3864  -3.3573  -3.3303  -3.3047  -3.2804  -3.2570  -3.2341
3.420  -5.4089  -5.4073  -5.4054  -5.4034  -5.4013  -5.3991  -5.3968  -5.3945  -5.3923  -5.3901  -5.3879  -5.3859  -5.3841  -5.3824  -5.3809  -5.3796  -5.3786  -5.3778  -5.3773  -5.3771  -5.3773  -5.3778  -5.3786  -5.3799  -5.3815  -5.3836  -5.3860  -5.3888  -5.3918  -5.3952  -5.3988  -5.4026  -5.4066  -5.4106  -5.4147  -5.4188  -5.4228  -5.4267  -5.4304  -5.4338  -5.4369  -5.4393  -5.4410  -5.4418  -5.4413  -5.4393  -5.4354  -5.4291  -5.4199  -5.4074  -5.3911  -5.3704  -5.3451  -5.3147  -5.2791  -5.2381  -5.1916  -5.1395  -5.0815  -5.0181  -4.9494  -4.8762  -4.7990  -4.7185  -4.6353  -4.5498  -4.4630  -4.3757  -4.2889  -4.2036  -4.1207  -4.0408  -3.9647  -3.8929  -3.8260  -3.7642  -3.7078  -3.6567  -3.6108  -3.5695  -3.5324  -3.4990  -3.4687  -3.4410  -3.4154  -3.3915  -3.3690  -3.3474  -3.3266  -3.3062  -3.2860
3.410  -5.4222  -5.4201  -5.4179  -5.4158  -5.4137  -5.4117  -5.4098  -5.4081  -5.4064  -5.4050  -5.4037  -5.4027  -5.4019  -5.4013  -5.4010  -5.4009  -5.4012  -5.4018  -5.4028  -5.4042  -5.4059  -5.4081  -5.4106  -5.4136  -5.4169  -5.4205  -5.4244  -5.4286  -5.4331  -5.4377  -5.4425  -5.4474  -5.4524  -5.4575  -5.4626  -5.4677  -5.4726  -5.4774  -5.4819  -5.4858  -5.4892  -5.4916  -5.4929  -5.4927  -5.4906  -5.4860  -5.4786  -5.4677  -5.4528  -5.4335  -5.4092  -5.3797  -5.3446  -5.3039  -5.2575  -5.2055  -5.1478  -5.0847  -5.0167  -4.9443  -4.8681  -4.7887  -4.7065  -4.6222  -4.5362  -4.4495  -4.3629  -4.2775  -4.1941  -4.1135  -4.0365  -3.9638  -3.8959  -3.8335  -3.7766  -3.7254  -3.6796  -3.6389  -3.6027  -3.5704  -3.5415  -3.5154  -3.4915  -3.4694  -3.4488  -3.4292  -3.4104  -3.3920  -3.3740  -3.3560  -3.3380
3.400  -5.4358  -5.4341  -5.4325  -5.4310  -5.4297  -5.4285  -5.4276  -5.4268  -5.4262  -5.4259  -5.4258  -5.4259  -5.4264  -5.4272  -5.4283  -5.4297  -5.4316  -5.4338  -5.4365  -5.4395  -5.4429  -5.4467  -5.4508  -5.4553  -5.4600  -5.4649  -5.4701  -5.4755  -5.4811  -5.4869  -5.4928  -5.4988  -5.5049  -5.5110  -5.5170  -5.5230  -5.5286  -5.5338  -5.5385  -5.5422  -5.5448  -5.5459  -5.5450  -5.5417  -5.5354  -5.5256  -5.5116  -5.4931  -5.4693  -5.4401  -5.4052  -5.3645  -5.3181  -5.2659  -5.2082  -5.1451  -5.0773  -5.0052  -4.9294  -4.8505  -4.7688  -4.6848  -4.5991  -4.5125  -4.4258  -4.3401  -4.2561  -4.1748  -4.0971  -4.0236  -3.9551  -3.8922  -3.8351  -3.7841  -3.7388  -3.6988  -3.6637  -3.6328  -3.6055  -3.5811  -3.5590  -3.5389  -3.5202  -3.5027  -3.4859  -3.4697  -3.4537  -3.4379  -3.4220  -3.4060  -3.3898
3.390  -5.4489  -5.4479  -5.4471  -5.4464  -5.4460  -5.4457  -5.4458  -5.4460  -5.4465  -5.4474  -5.4485  -5.4500  -5.4519  -5.4542  -5.4568  -5.4599  -5.4633  -5.4671  -5.4713  -5.4758  -5.4805  -5.4856  -5.4909  -5.4965  -5.5023  -5.5083  -5.5145  -5.5209  -5.5274  -5.5342  -5.5410  -5.5479  -5.5547  -5.5613  -5.5678  -5.5738  -5.5792  -5.5838  -5.5872  -5.5891  -5.5890  -5.5864  -5.5808  -5.5716  -5.5581  -5.5398  -5.5161  -5.4867  -5.4513  -5.4099  -5.3627  -5.3098  -5.2512  -5.1874  -5.1188  -5.0461  -4.9697  -4.8902  -4.8081  -4.7238  -4.6378  -4.5510  -4.4640  -4.3780  -4.2937  -4.2120  -4.1338  -4.0599  -3.9911  -3.9281  -3.8713  -3.8207  -3.7762  -3.7374  -3.7036  -3.6743  -3.6488  -3.6263  -3.6063  -3.5883  -3.5718  -3.5565  -3.5420  -3.5280  -3.5144  -3.5010  -3.4875  -3.4739  -3.4602  -3.4462  -3.4319
3.380  -5.4656  -5.4654  -5.4656  -5.4659  -5.4665  -5.4674  -5.4687  -5.4702  -5.4721  -5.4744  -5.4771  -5.4802  -5.4836  -5.4874  -5.4916  -5.4961  -5.5010  -5.5061  -5.5114  -5.5171  -5.5229  -5.5291  -5.5354  -5.5420  -5.5488  -5.5558  -5.5630  -5.5704  -5.5778  -5.5853  -5.5927  -5.5999  -5.6068  -5.6133  -5.6192  -5.6242  -5.6281  -5.6304  -5.6307  -5.6285  -5.6232  -5.6141  -5.6006  -5.5821  -5.5580  -5.5280  -5.4917  -5.4495  -5.4013  -5.3474  -5.2880  -5.2233  -5.1537  -5.0800  -5.0026  -4.9221  -4.8390  -4.7537  -4.6668  -4.5791  -4.4914  -4.4047  -4.3197  -4.2374  -4.1587  -4.0845  -4.0155  -3.9525  -3.8960  -3.8461  -3.8026  -3.7650  -3.7327  -3.7051  -3.6814  -3.6608  -3.6429  -3.6269  -3.6126  -3.5994  -3.5871  -3.5753  -3.5639  -3.5527  -3.5416  -3.5304  -3.5190  -3.5075  -3.4958  -3.4838  -3.4715
3.370  -5.4864  -5.4874  -5.4887  -5.4903  -5.4923  -5.4946  -5.4973  -5.5005  -5.5040  -5.5078  -5.5121  -5.5166  -5.5215  -5.5266  -5.5321  -5.5377  -5.5437  -5.5498  -5.5562  -5.5629  -5.5698  -5.5770  -5.5844  -5.5920  -5.5998  -5.6077  -5.6156  -5.6235  -5.6313  -5.6388  -5.6460  -5.6528  -5.6589  -5.6641  -5.6681  -5.6705  -5.6708  -5.6686  -5.6632  -5.6539  -5.6401  -5.6210  -5.5961  -5.5651  -5.5278  -5.4845  -5.4353  -5.3803  -5.3198  -5.2540  -5.1833  -5.1083  -5.0296  -4.9476  -4.8630  -4.7762  -4.6879  -4.5988  -4.5099  -4.4221  -4.3361  -4.2531  -4.1737  -4.0991  -4.0300  -3.9672  -3.9112  -3.8621  -3.8197  -3.7834  -3.7527  -3.7268  -3.7049  -3.6862  -3.6702  -3.6562  -3.6438  -3.6326  -3.6223  -3.6126  -3.6033  -3.5942  -3.5852  -3.5762  -3.5671  -3.5578  -3.5484  -3.5388  -3.5290  -3.5190  -3.5087
3.360  -5.5124  -5.5149  -5.5176  -5.5208  -5.5244  -5.5284  -5.5327  -5.5373  -5.5422  -5.5474  -5.5529  -5.5586  -5.5646  -5.5708  -5.5773  -5.5840  -5.5910  -5.5983  -5.6058  -5.6136  -5.6215  -5.6297  -5.6379  -5.6462  -5.6545  -5.6627  -5.6706  -5.6784  -5.6857  -5.6925  -5.6985  -5.7037  -5.7075  -5.7098  -5.7099  -5.7073  -5.7014  -5.6916  -5.6771  -5.6571  -5.6312  -5.5991  -5.5606  -5.5160  -5.4656  -5.4095  -5.3478  -5.2807  -5.2086  -5.1320  -5.0515  -4.9677  -4.8813  -4.7926  -4.7025  -4.6117  -4.5212  -4.4319  -4.3448  -4.2608  -4.1808  -4.1057  -4.0367  -3.9743  -3.9190  -3.8709  -3.8298  -3.7950  -3.7659  -3.7416  -3.7214  -3.7045  -3.6903  -3.6781  -3.6675  -3.6581  -3.6496  -3.6417  -3.6342  -3.6270  -3.6199  -3.6128  -3.6057  -3.5985  -3.5912  -3.5837  -3.5761  -3.5683  -3.5603  -3.5521  -3.5436
3.350  -5.5451  -5.5491  -5.5535  -5.5583  -5.5633  -5.5686  -5.5741  -5.5799  -5.5860  -5.5923  -5.5988  -5.6056  -5.6126  -5.6199  -5.6276  -5.6354  -5.6435  -5.6518  -5.6603  -5.6689  -5.6775  -5.6861  -5.6945  -5.7028  -5.7109  -5.7186  -5.7258  -5.7325  -5.7384  -5.7432  -5.7468  -5.7486  -5.7482  -5.7450  -5.7383  -5.7276  -5.7121  -5.6911  -5.6639  -5.6304  -5.5906  -5.5448  -5.4931  -5.4357  -5.3726  -5.3039  -5.2301  -5.1516  -5.0691  -4.9832  -4.8946  -4.8039  -4.7117  -4.6190  -4.5267  -4.4358  -4.3473  -4.2622  -4.1816  -4.1064  -4.0375  -3.9758  -3.9215  -3.8748  -3.8351  -3.8020  -3.7746  -3.7520  -3.7335  -3.7183  -3.7056  -3.6950  -3.6860  -3.6781  -3.6711  -3.6648  -3.6589  -3.6532  -3.6477  -3.6423  -3.6369  -3.6314  -3.6259  -3.6203  -3.6145  -3.6086  -3.6026  -3.5963  -3.5898  -3.5830  -3.5759
3.340  -5.5848  -5.5902  -5.5959  -5.6018  -5.6079  -5.6143  -5.6209  -5.6277  -5.6348  -5.6422  -5.6499  -5.6579  -5.6661  -5.6745  -5.6832  -5.6919  -5.7008  -5.7097  -5.7185  -5.7272  -5.7357  -5.7440  -5.7520  -5.7596  -5.7666  -5.7730  -5.7786  -5.7831  -5.7861  -5.7872  -5.7860  -5.7819  -5.7743  -5.7624  -5.7456  -5.7231  -5.6944  -5.6594  -5.6182  -5.5710  -5.5179  -5.4590  -5.3943  -5.3239  -5.2481  -5.1675  -5.0829  -4.9948  -4.9039  -4.8109  -4.7165  -4.6217  -4.5275  -4.4349  -4.3450  -4.2590  -4.1779  -4.1028  -4.0345  -3.9739  -3.9210  -3.8759  -3.8381  -3.8068  -3.7812  -3.7604  -3.7435  -3.7298  -3.7186  -3.7094  -3.7017  -3.6951  -3.6894  -3.6844  -3.6797  -3.6754  -3.6712  -3.6671  -3.6631  -3.6591  -3.6550  -3.6508  -3.6466  -3.6423  -3.6378  -3.6331  -3.6282  -3.6230  -3.6176  -3.6118  -3.6055
3.330  -5.6305  -5.6369  -5.6437  -5.6506  -5.6579  -5.6654  -5.6731  -5.6812  -5.6895  -5.6980  -5.7068  -5.7157  -5.7248  -5.7339  -5.7430  -5.7520  -5.7610  -5.7697  -5.7782  -5.7864  -5.7942  -5.8015  -5.8083  -5.8144  -5.8195  -5.8234  -5.8257  -5.8260  -5.8237  -5.8184  -5.8094  -5.7960  -5.7776  -5.7534  -5.7231  -5.6864  -5.6436  -5.5948  -5.5402  -5.4797  -5.4132  -5.3409  -5.2631  -5.1804  -5.0935  -5.0031  -4.9099  -4.8146  -4.7179  -4.6209  -4.5247  -4.4305  -4.3394  -4.2527  -4.1715  -4.0969  -4.0298  -3.9707  -3.9198  -3.8768  -3.8411  -3.8118  -3.7881  -3.7691  -3.7538  -3.7416  -3.7318  -3.7238  -3.7172  -3.7118  -3.7071  -3.7031  -3.6994  -3.6961  -3.6930  -3.6899  -3.6870  -3.6841  -3.6811  -3.6781  -3.6751  -3.6719  -3.6686  -3.6651  -3.6615  -3.6576  -3.6534  -3.6489  -3.6441  -3.6388  -3.6330
3.320  -5.6819  -5.6895  -5.6974  -5.7056  -5.7140  -5.7227  -5.7316  -5.7406  -5.7499  -5.7592  -5.7685  -5.7778  -5.7871  -5.7962  -5.8051  -5.8138  -5.8221  -5.8302  -5.8378  -5.8449  -5.8513  -5.8569  -5.8614  -5.8645  -5.8658  -5.8649  -5.8613  -5.8545  -5.8439  -5.8288  -5.8085  -5.7824  -5.7502  -5.7117  -5.6671  -5.6166  -5.5603  -5.4981  -5.4298  -5.3556  -5.2758  -5.1909  -5.1018  -5.0092  -4.9136  -4.8160  -4.7170  -4.6179  -4.5199  -4.4243  -4.3323  -4.2454  -4.1647  -4.0913  -4.0259  -3.9690  -3.9206  -3.8800  -3.8468  -3.8198  -3.7982  -3.7809  -3.7673  -3.7564  -3.7478  -3.7409  -3.7353  -3.7308  -3.7270  -3.7237  -3.7209  -3.7183  -3.7159  -3.7137  -3.7116  -3.7094  -3.7073  -3.7052  -3.7030  -3.7007  -3.6982  -3.6957  -3.6929  -3.6899  -3.6867  -3.6832  -3.6793  -3.6750  -3.6703  -3.6652  -3.6595
3.310  -5.7400  -5.7489  -5.7579  -5.7671  -5.7765  -5.7860  -5.7956  -5.8051  -5.8147  -5.8241  -5.8334  -5.8425  -5.8514  -5.8599  -5.8682  -5.8760  -5.8834  -5.8901  -5.8961  -5.9010  -5.9047  -5.9068  -5.9068  -5.9045  -5.8993  -5.8908  -5.8783  -5.8613  -5.8389  -5.8107  -5.7764  -5.7360  -5.6896  -5.6373  -5.5793  -5.5153  -5.4453  -5.3694  -5.2877  -5.2010  -5.1099  -5.0152  -4.9174  -4.8175  -4.7165  -4.6155  -4.5159  -4.4193  -4.3270  -4.2405  -4.1609  -4.0894  -4.0265  -3.9725  -3.9269  -3.8893  -3.8588  -3.8342  -3.8147  -3.7993  -3.7872  -3.7777  -3.7702  -3.7643  -3.7595  -3.7557  -3.7525  -3.7499  -3.7476  -3.7456  -3.7438  -3.7422  -3.7406  -3.7390  -3.7374  -3.7359  -3.7342  -3.7325  -3.7306  -3.7286  -3.7265  -3.7241  -3.7214  -3.7185  -3.7152  -3.7116  -3.7076  -3.7032  -3.6983  -3.6928  -3.6869
3.300  -5.8059  -5.8156  -5.8254  -5.8352  -5.8450  -5.8548  -5.8645  -5.8740  -5.8833  -5.8925  -5.9013  -5.9098  -5.9180  -5.9256  -5.9327  -5.9389  -5.9442  -5.9483  -5.9509  -5.9516  -5.9502  -5.9461  -5.9392  -5.9287  -5.9142  -5.8950  -5.8705  -5.8403  -5.8040  -5.7617  -5.7135  -5.6595  -5.5998  -5.5344  -5.4630  -5.3857  -5.3029  -5.2150  -5.1227  -5.0266  -4.9273  -4.8258  -4.7231  -4.6207  -4.5201  -4.4230  -4.3310  -4.2455  -4.1679  -4.0990  -4.0393  -3.9886  -3.9464  -3.9120  -3.8843  -3.8623  -3.8449  -3.8313  -3.8206  -3.8123  -3.8057  -3.8006  -3.7965  -3.7932  -3.7905  -3.7883  -3.7864  -3.7848  -3.7833  -3.7819  -3.7806  -3.7793  -3.7780  -3.7767  -3.7753  -3.7737  -3.7721  -3.7703  -3.7683  -3.7661  -3.7637  -3.7609  -3.7578  -3.7544  -3.7505  -3.7463  -3.7416  -3.7365  -3.7308  -3.7247  -3.7180
3.290  -5.8703  -5.8802  -5.8900  -5.8997  -5.9092  -5.9185  -5.9276  -5.9364  -5.9449  -5.9529  -5.9605  -5.9674  -5.9736  -5.9787  -5.9828  -5.9853  -5.9862  -5.9850  -5.9815  -5.9751  -5.9657  -5.9525  -5.9351  -5.9128  -5.8850  -5.8514  -5.8117  -5.7661  -5.7147  -5.6577  -5.5949  -5.5262  -5.4515  -5.3710  -5.2849  -5.1938  -5.0983  -4.9990  -4.8968  -4.7927  -4.6879  -4.5842  -4.4831  -4.3864  -4.2959  -4.2130  -4.1387  -4.0738  -4.0183  -3.9719  -3.9339  -3.9032  -3.8787  -3.8594  -3.8444  -3.8326  -3.8235  -3.8164  -3.8109  -3.8066  -3.8032  -3.8005  -3.7983  -3.7966  -3.7951  -3.7939  -3.7928  -3.7918  -3.7908  -3.7899  -3.7890  -3.7881  -3.7871  -3.7860  -3.7848  -3.7835  -3.7821  -3.7804  -3.7785  -3.7764  -3.7739  -3.7712  -3.7680  -3.7645  -3.7606  -3.7562  -3.7514  -3.7461  -3.7403  -3.7340  -3.7271
3.280  -5.9359  -5.9454  -5.9547  -5.9637  -5.9724  -5.9807  -5.9886  -5.9959  -6.0025  -6.0084  -6.0133  -6.0170  -6.0194  -6.0201  -6.0190  -6.0156  -6.0097  -6.0008  -5.9887  -5.9726  -5.9520  -5.9262  -5.8949  -5.8577  -5.8145  -5.7654  -5.7107  -5.6503  -5.5840  -5.5117  -5.4334  -5.3491  -5.2595  -5.1649  -5.0660  -4.9636  -4.8586  -4.7522  -4.6459  -4.5415  -4.4410  -4.3460  -4.2583  -4.1792  -4.1095  -4.0496  -3.9992  -3.9577  -3.9241  -3.8973  -3.8762  -3.8597  -3.8469  -3.8370  -3.8293  -3.8234  -3.8188  -3.8152  -3.8124  -3.8102  -3.8085  -3.8071  -3.8060  -3.8050  -3.8042  -3.8035  -3.8028  -3.8022  -3.8015  -3.8009  -3.8002  -3.7994  -3.7986  -3.7976  -3.7965  -3.7953  -3.7939  -3.7922  -3.7903  -3.7881  -3.7856  -3.7827  -3.7794  -3.7758  -3.7716  -3.7671  -3.7620  -3.7565  -3.7504  -3.7438  -3.7367
3.270  -6.0007  -6.0092  -6.0172  -6.0247  -6.0316  -6.0378  -6.0432  -6.0476  -6.0509  -6.0529  -6.0534  -6.0520  -6.0486  -6.0428  -6.0344  -6.0229  -6.0078  -5.9885  -5.9645  -5.9351  -5.9000  -5.8590  -5.8122  -5.7595  -5.7012  -5.6370  -5.5669  -5.4906  -5.4082  -5.3200  -5.2265  -5.1282  -5.0259  -4.9204  -4.8129  -4.7048  -4.5978  -4.4940  -4.3953  -4.3035  -4.2200  -4.1461  -4.0822  -4.0282  -3.9835  -3.9473  -3.9184  -3.8957  -3.8779  -3.8641  -3.8534  -3.8452  -3.8388  -3.8339  -3.8302  -3.8273  -3.8250  -3.8232  -3.8219  -3.8208  -3.8199  -3.8191  -3.8185  -3.8180  -3.8175  -3.8171  -3.8166  -3.8161  -3.8157  -3.8151  -3.8145  -3.8138  -3.8130  -3.8121  -3.8110  -3.8098  -3.8083  -3.8065  -3.8045  -3.8022  -3.7995  -3.7964  -3.7930  -3.7890  -3.7846  -3.7798  -3.7744  -3.7685  -3.7621  -3.7552  -3.7477
3.260  -6.0612  -6.0676  -6.0731  -6.0779  -6.0816  -6.0843  -6.0857  -6.0857  -6.0841  -6.0805  -6.0747  -6.0664  -6.0553  -6.0410  -6.0228  -6.0002  -5.9725  -5.9393  -5.9003  -5.8554  -5.8047  -5.7482  -5.6859  -5.6177  -5.5432  -5.4625  -5.3758  -5.2834  -5.1859  -5.0839  -4.9782  -4.8700  -4.7605  -4.6516  -4.5452  -4.4433  -4.3480  -4.2610  -4.1834  -4.1160  -4.0589  -4.0116  -3.9731  -3.9424  -3.9182  -3.8993  -3.8847  -3.8734  -3.8647  -3.8580  -3.8529  -3.8489  -3.8459  -3.8435  -3.8417  -3.8403  -3.8392  -3.8384  -3.8377  -3.8371  -3.8366  -3.8362  -3.8359  -3.8356  -3.8352  -3.8349  -3.8346  -3.8342  -3.8337  -3.8332  -3.8327  -3.8320  -3.8312  -3.8302  -3.8290  -3.8277  -3.8261  -3.8242  -3.8220  -3.8195  -3.8166  -3.8132  -3.8095  -3.8052  -3.8005  -3.7953  -3.7895  -3.7832  -3.7764  -3.7691  -3.7612
3.250  -6.1120  -6.1150  -6.1170  -6.1178  -6.1172  -6.1152  -6.1113  -6.1054  -6.0972  -6.0864  -6.0725  -6.0551  -6.0336  -6.0074  -5.9758  -5.9386  -5.8955  -5.8466  -5.7918  -5.7312  -5.6646  -5.5918  -5.5127  -5.4273  -5.3360  -5.2393  -5.1377  -5.0322  -4.9235  -4.8132  -4.7028  -4.5944  -4.4901  -4.3920  -4.3019  -4.2214  -4.1512  -4.0916  -4.0421  -4.0019  -3.9697  -3.9444  -3.9247  -3.9094  -3.8977  -3.8886  -3.8817  -3.8764  -3.8723  -3.8692  -3.8668  -3.8649  -3.8635  -3.8624  -3.8615  -3.8609  -3.8603  -3.8599  -3.8595  -3.8592  -3.8590  -3.8587  -3.8585  -3.8583  -3.8580  -3.8577  -3.8574  -3.8570  -3.8566  -3.8561  -3.8555  -3.8547  -3.8538  -3.8528  -3.8515  -3.8500  -3.8482  -3.8462  -3.8437  -3.8409  -3.8377  -3.8340  -3.8299  -3.8252  -3.8201  -3.8144  -3.8082  -3.8014  -3.7941  -3.7863  -3.7778
3.240  -6.1490  -6.1479  -6.1454  -6.1412  -6.1351  -6.1268  -6.1161  -6.1026  -6.0859  -6.0653  -6.0402  -6.0101  -5.9745  -5.9331  -5.8857  -5.8325  -5.7734  -5.7084  -5.6370  -5.5593  -5.4752  -5.3850  -5.2891  -5.1881  -5.0828  -4.9740  -4.8632  -4.7518  -4.6420  -4.5358  -4.4356  -4.3433  -4.2605  -4.1882  -4.1267  -4.0757  -4.0343  -4.0012  -3.9752  -3.9550  -3.9394  -3.9273  -3.9181  -3.9111  -3.9057  -3.9016  -3.8984  -3.8960  -3.8941  -3.8927  -3.8915  -3.8907  -3.8900  -3.8895  -3.8891  -3.8888  -3.8885  -3.8883  -3.8881  -3.8879  -3.8877  -3.8876  -3.8874  -3.8872  -3.8869  -3.8866  -3.8863  -3.8859  -3.8854  -3.8848  -3.8841  -3.8833  -3.8823  -3.8811  -3.8796  -3.8779  -3.8759  -3.8735  -3.8708  -3.8676  -3.8639  -3.8598  -3.8552  -3.8501  -3.8444  -3.8381  -3.8314  -3.8240  -3.8161  -3.8076  -3.7986
3.230  -6.1703  -6.1639  -6.1555  -6.1449  -6.1317  -6.1154  -6.0955  -6.0714  -6.0426  -6.0084  -5.9686  -5.9228  -5.8711  -5.8134  -5.7497  -5.6798  -5.6034  -5.5205  -5.4314  -5.3364  -5.2361  -5.1312  -5.0227  -4.9117  -4.7998  -4.6890  -4.5817  -4.4800  -4.3862  -4.3019  -4.2284  -4.1658  -4.1140  -4.0719  -4.0385  -4.0123  -3.9919  -3.9763  -3.9642  -3.9551  -3.9480  -3.9427  -3.9386  -3.9354  -3.9330  -3.9312  -3.9297  -3.9286  -3.9278  -3.9272  -3.9267  -3.9263  -3.9260  -3.9257  -3.9255  -3.9253  -3.9252  -3.9251  -3.9249  -3.9248  -3.9247  -3.9245  -3.9243  -3.9241  -3.9238  -3.9235  -3.9231  -3.9226  -3.9221  -3.9214  -3.9205  -3.9195  -3.9183  -3.9168  -3.9151  -3.9130  -3.9106  -3.9078  -3.9046  -3.9009  -3.8967  -3.8920  -3.8868  -3.8809  -3.8746  -3.8676  -3.8601  -3.8520  -3.8434  -3.8341  -3.8242
3.220  -6.1730  -6.1600  -6.1441  -6.1249  -6.1017  -6.0740  -6.0412  -6.0029  -5.9587  -5.9085  -5.8523  -5.7899  -5.7213  -5.6463  -5.5647  -5.4768  -5.3829  -5.2837  -5.1797  -5.0718  -4.9612  -4.8493  -4.7383  -4.6304  -4.5281  -4.4336  -4.3487  -4.2747  -4.2119  -4.1600  -4.1182  -4.0850  -4.0590  -4.0390  -4.0236  -4.0118  -4.0028  -3.9960  -3.9908  -3.9868  -3.9838  -3.9814  -3.9796  -3.9783  -3.9772  -3.9764  -3.9758  -3.9753  -3.9750  -3.9747  -3.9744  -3.9743  -3.9741  -3.9740  -3.9739  -3.9738  -3.9737  -3.9736  -3.9735  -3.9733  -3.9732  -3.9730  -3.9728  -3.9725  -3.9721  -3.9717  -3.9712  -3.9706  -3.9698  -3.9689  -3.9678  -3.9665  -3.9649  -3.9630  -3.9607  -3.9581  -3.9551  -3.9516  -3.9477  -3.9432  -3.9382  -3.9326  -3.9265  -3.9198  -3.9125  -3.9046  -3.8961  -3.8870  -3.8773  -3.8670  -3.8561
3.210  -6.1541  -6.1317  -6.1052  -6.0738  -6.0371  -5.9947  -5.9463  -5.8917  -5.8310  -5.7640  -5.6906  -5.6108  -5.5246  -5.4325  -5.3349  -5.2327  -5.1266  -5.0175  -4.9069  -4.7967  -4.6894  -4.5874  -4.4932  -4.4087  -4.3352  -4.2732  -4.2222  -4.1812  -4.1489  -4.1238  -4.1045  -4.0897  -4.0784  -4.0699  -4.0634  -4.0584  -4.0547  -4.0518  -4.0496  -4.0479  -4.0467  -4.0457  -4.0450  -4.0444  -4.0440  -4.0436  -4.0434  -4.0432  -4.0430  -4.0429  -4.0428  -4.0427  -4.0427  -4.0426  -4.0425  -4.0424  -4.0423  -4.0422  -4.0420  -4.0418  -4.0416  -4.0413  -4.0409  -4.0404  -4.0399  -4.0392  -4.0384  -4.0373  -4.0361  -4.0346  -4.0329  -4.0308  -4.0284  -4.0256  -4.0223  -4.0186  -4.0144  -4.0097  -4.0045  -3.9987  -3.9923  -3.9854  -3.9779  -3.9698  -3.9611  -3.9518  -3.9419  -3.9314  -3.9203  -3.9086  -3.8963
3.200  -6.1080  -6.0734  -6.0334  -5.9875  -5.9355  -5.8773  -5.8129  -5.7422  -5.6653  -5.5824  -5.4940  -5.4006  -5.3031  -5.2024  -5.0995  -4.9955  -4.8917  -4.7901  -4.6930  -4.6027  -4.5215  -4.4509  -4.3913  -4.3425  -4.3035  -4.2730  -4.2493  -4.2313  -4.2176  -4.2072  -4.1993  -4.1934  -4.1890  -4.1856  -4.1831  -4.1812  -4.1798  -4.1788  -4.1780  -4.1775  -4.1771  -4.1768  -4.1766  -4.1765  -4.1765  -4.1764  -4.1764  -4.1764  -4.1764  -4.1764  -4.1763  -4.1762  -4.1760  -4.1758  -4.1756  -4.1752  -4.1748  -4.1742  -4.1735  -4.1726  -4.1715  -4.1701  -4.1685  -4.1666  -4.1643  -4.1616  -4.1585  -4.1549  -4.1509  -4.1464  -4.1415  -4.1360  -4.1302  -4.1239  -4.1172  -4.1102  -4.1027  -4.0948  -4.0865  -4.0777  -4.0685  -4.0589  -4.0487  -4.0381  -4.0269  -4.0152  -4.0030  -3.9902  -3.9769  -3.9631  -3.9486
#
# AESOPUS computation completed
