#  Calculations performed with AESOPUS via the web interface: http://stev.oapd.inaf.it/aesopus
#  Date:  10/07/2019; Central European Time  22:12:47
#  Tables of Rosseland mean opacities
#  Reference paper: Marigo & Aringer (2009, A&A, 508, 1539)
#
#  Definitions:
#  The base-10 logarithm of the Rosseland mean opacity [cm**2/g] as a function
#  of log10(T) for columns of constant log10(R), where:
#  R=density[g/cm**3]/T6**3, T6=1.e-6*T[K]
#
#  Ranges of state parameters
#
#  log10(T) range: nt=  67  values from  4.500  to  3.200
#  log10(T) = [3.200,3.700] in steps of  0.010
#  log10(T) = ]3.700,4.500] in steps of  0.050
#
#  log10(R) range: nre= 91  values from -8.000  to  1.000
#                           in steps of  0.100
#
#
#  Composition parameters:
#
#       X     = hydrogen mass fraction
#               mh =  1 values from 0.700 to 0.700 in steps of 0.200
#       Zref  = 2.000000E-02  reference metallicity
#       Z     = actual metallicity
#
#       Reference solar mixture: Grevesse & Sauval 1998 ---- Zsun =  0.01696  (C/O)sun =  0.48978
#
#     Zi   element   (ni/nz)sun         (Xi/Z)sun         <Ai>
#
#      3     Li     9.323684E-09     3.757845E-09     6.941739E+00
#      4     Be     1.859891E-08     9.731966E-09     9.012183E+00
#      5     B      2.627166E-07     1.649247E-07     1.081222E+01
#      6     C      2.451814E-01     1.709837E-01     1.201114E+01
#      7     N      6.158679E-02     5.008508E-02     1.400676E+01
#      8     O      5.005962E-01     4.650221E-01     1.599938E+01
#      9     F      2.688361E-05     2.965430E-05     1.899841E+01
#     10     Ne     8.904049E-02     1.042809E-01     2.017132E+01
#     11     Na     1.583024E-03     2.113028E-03     2.298977E+01
#     12     Mg     2.814411E-02     3.972350E-02     2.430955E+01
#     13     Al     2.184679E-03     3.422452E-03     2.698154E+01
#     14     Si     2.627166E-02     4.284049E-02     2.808561E+01
#     15     P      2.086832E-04     3.752879E-04     3.097377E+01
#     16     S      1.583024E-02     2.947097E-02     3.206445E+01
#     17     Cl     2.341464E-04     4.820356E-04     3.545753E+01
#     18     Ar     1.859891E-03     4.313819E-03     3.994766E+01
#     19     K      9.758600E-05     2.215449E-04     3.910130E+01
#     20     Ca     1.696632E-03     3.947852E-03     4.007654E+01
#     21     Sc     1.094933E-06     2.857969E-06     4.495592E+01
#     22     Ti     7.753317E-05     2.155336E-04     4.787893E+01
#     23     V      7.404360E-06     2.189994E-05     5.094157E+01
#     24     Cr     3.463279E-04     1.045572E-03     5.199762E+01
#     25     Mn     1.817136E-04     5.796206E-04     5.493805E+01
#     26     Fe     2.341464E-02     7.592291E-02     5.584731E+01
#     27     Co     6.158679E-05     2.107320E-04     5.893319E+01
#     28     Ni     1.316702E-03     4.487945E-03     5.870525E+01
#     29     Cu     1.201123E-05     4.431668E-05     6.354723E+01
#     30     Zn     2.947729E-05     1.119080E-04     6.538687E+01
#     31     Ga     5.616782E-07     2.273583E-06     6.971723E+01
#     32     Ge     1.903214E-06     8.025819E-06     7.263045E+01
#     33     As     1.736151E-07     7.552272E-07     7.492160E+01
#     34     Se     1.903214E-06     8.728593E-06     7.899028E+01
#     35     Br     3.158548E-07     1.465389E-06     7.990652E+01
#     36     Kr     1.511428E-06     7.353928E-06     8.380092E+01
#     37     Rb     2.947729E-07     1.462765E-06     8.546807E+01
#     38     Sr     6.910151E-07     3.515251E-06     8.761646E+01
#     39     Y      1.287027E-07     6.643562E-07     8.890587E+01
#     40     Zr     2.947729E-07     1.561272E-06     9.122375E+01
#     41     Nb     1.947545E-08     1.050549E-07     9.290638E+01
#     42     Mo     6.158679E-08     3.428800E-07     9.588960E+01
#     43     Tc     0.000000E+00     0.000000E+00     9.690639E+01
#     44     Ru     5.122566E-08     3.005927E-07     1.010666E+02
#     45     Rh     9.758600E-09     5.830546E-08     1.029055E+02
#     46     Pd     3.626499E-08     2.240978E-07     1.064307E+02
#     47     Ag     6.448928E-09     4.038921E-08     1.078685E+02
#     48     Cd     4.360011E-08     2.845931E-07     1.124227E+02
#     49     In     3.384446E-08     2.256221E-07     1.148183E+02
#     50     Sn     7.404360E-08     5.104404E-07     1.187338E+02
#     51     Sb     7.404360E-09     5.234457E-08     1.217590E+02
#     52     Te     1.287027E-07     9.537093E-07     1.276278E+02
#     53     I      2.395452E-08     1.765011E-07     1.269045E+02
#     54     Xe     1.094933E-07     8.346586E-07     1.312920E+02
#     55     Cs     9.990507E-09     7.709272E-08     1.329054E+02
#     56     Ba     9.990507E-08     7.965774E-07     1.373275E+02
#     57     La     1.094933E-08     8.830597E-08     1.389055E+02
#     58     Ce     2.814411E-08     2.289570E-07     1.401146E+02
#     59     Pr     3.796536E-09     3.106028E-08     1.409077E+02
#     60     Nd     2.341464E-08     1.960919E-07     1.442411E+02
#     61     Pm     0.000000E+00     0.000000E+00     1.449128E+02
#     62     Sm     7.576830E-09     6.614742E-08     1.503635E+02
#     63     Eu     2.395452E-09     2.113547E-08     1.519642E+02
#     64     Gd     9.758600E-09     8.909990E-08     1.572558E+02
#     65     Tb     5.881492E-10     5.427051E-09     1.589254E+02
#     66     Dy     1.022322E-08     9.645489E-08     1.625001E+02
#     67     Ho     1.347372E-09     1.290242E-08     1.649304E+02
#     68     Er     6.302133E-09     6.120210E-08     1.672614E+02
#     69     Tm     7.404360E-10     7.262536E-09     1.689342E+02
#     70     Yb     8.904049E-09     8.945589E-08     1.730367E+02
#     71     Lu     8.503301E-10     8.638257E-09     1.749667E+02
#     72     Hf     5.616782E-09     5.820847E-08     1.784907E+02
#     73     Ta     5.488928E-10     5.766657E-09     1.809479E+02
#     74     W      9.540860E-09     1.018390E-07     1.838415E+02
#     75     Re     1.410872E-09     1.525392E-08     1.862134E+02
#     76     Os     2.086832E-08     2.304976E-07     1.902374E+02
#     77     Ir     1.658011E-08     1.850377E-07     1.922161E+02
#     78     Pt     4.671835E-08     5.291572E-07     1.950806E+02
#     79     Au     7.576830E-09     8.664890E-08     1.969666E+02
#     80     Hg     9.990507E-09     1.163576E-07     2.005969E+02
#     81     Tl     5.881492E-09     6.979384E-08     2.043838E+02
#     82     Pb     6.599143E-08     7.939617E-07     2.072187E+02
#     83     Bi     3.796536E-09     4.606554E-08     2.089804E+02
#     84     Po     0.000000E+00     0.000000E+00     2.089824E+02
#     85     At     0.000000E+00     0.000000E+00     2.099870E+02
#     86     Rn     0.000000E+00     0.000000E+00     2.220176E+02
#     87     Fr     0.000000E+00     0.000000E+00     2.230198E+02
#     88     Ra     0.000000E+00     0.000000E+00     2.260254E+02
#     89     Ac     0.000000E+00     0.000000E+00     2.270278E+02
#     90     Th     9.105159E-10     1.226676E-08     2.320381E+02
#     91     Pa     0.000000E+00     0.000000E+00     2.310359E+02
#     92     U      2.341464E-10     3.235939E-09     2.380289E+02
#     93     Np     0.000000E+00     0.000000E+00     2.370482E+02
#     94     Pu     0.000000E+00     0.000000E+00     2.440642E+02
#     95     Am     0.000000E+00     0.000000E+00     2.430614E+02
#     96     Cm     0.000000E+00     0.000000E+00     2.470704E+02
#     97     Bk     0.000000E+00     0.000000E+00     2.470703E+02
#     98     Cf     0.000000E+00     0.000000E+00     2.510796E+02
#     99     Es     0.000000E+00     0.000000E+00     2.540881E+02
#
#
#  Abundance ratio variations of metals with respect to 
#  scaled-solar values: [X_i/Fe] (in dex)
#  Fe-group elements: V, Cr, Mn, Fe, Co, Ni, Cu, Zn
#  Reference metallicity is preserved:  Zref = Z
#  No change in any metal abundance
#
#       1    H         -----      34   [Se/Fe]=   0.000      67   [Ho/Fe]=   0.000
#       2    He        -----      35   [Br/Fe]=   0.000      68   [Er/Fe]=   0.000
#       3   [Li/Fe]=   0.000      36   [Kr/Fe]=   0.000      69   [Tm/Fe]=   0.000
#       4   [Be/Fe]=   0.000      37   [Rb/Fe]=   0.000      70   [Yb/Fe]=   0.000
#       5   [B /Fe]=   0.000      38   [Sr/Fe]=   0.000      71   [Lu/Fe]=   0.000
#       6   [C /Fe]=   0.000      39   [Y /Fe]=   0.000      72   [Hf/Fe]=   0.000
#       7   [N /Fe]=   0.000      40   [Zr/Fe]=   0.000      73   [Ta/Fe]=   0.000
#       8   [O /Fe]=   0.000      41   [Nb/Fe]=   0.000      74   [W /Fe]=   0.000
#       9   [F /Fe]=   0.000      42   [Mo/Fe]=   0.000      75   [Re/Fe]=   0.000
#      10   [Ne/Fe]=   0.000      43   [Tc/Fe]=   0.000      76   [Os/Fe]=   0.000
#      11   [Na/Fe]=   0.000      44   [Ru/Fe]=   0.000      77   [Ir/Fe]=   0.000
#      12   [Mg/Fe]=   0.000      45   [Rh/Fe]=   0.000      78   [Pt/Fe]=   0.000
#      13   [Al/Fe]=   0.000      46   [Pd/Fe]=   0.000      79   [Au/Fe]=   0.000
#      14   [Si/Fe]=   0.000      47   [Ag/Fe]=   0.000      80   [Hg/Fe]=   0.000
#      15   [P /Fe]=   0.000      48   [Cd/Fe]=   0.000      81   [Tl/Fe]=   0.000
#      16   [S /Fe]=   0.000      49   [In/Fe]=   0.000      82   [Pb/Fe]=   0.000
#      17   [Cl/Fe]=   0.000      50   [Sn/Fe]=   0.000      83   [Bi/Fe]=   0.000
#      18   [Ar/Fe]=   0.000      51   [Sb/Fe]=   0.000      84   [Po/Fe]=   0.000
#      19   [K /Fe]=   0.000      52   [Te/Fe]=   0.000      85   [At/Fe]=   0.000
#      20   [Ca/Fe]=   0.000      53   [I /Fe]=   0.000      86   [Rn/Fe]=   0.000
#      21   [Sc/Fe]=   0.000      54   [Xe/Fe]=   0.000      87   [Fr/Fe]=   0.000
#      22   [Ti/Fe]=   0.000      55   [Cs/Fe]=   0.000      88   [Ra/Fe]=   0.000
#      23    V         -----      56   [Ba/Fe]=   0.000      89   [Ac/Fe]=   0.000
#      24    Cr        -----      57   [La/Fe]=   0.000      90   [Th/Fe]=   0.000
#      25    Mn        -----      58   [Ce/Fe]=   0.000      91   [Pa/Fe]=   0.000
#      26    Fe        -----      59   [Pr/Fe]=   0.000      92   [U /Fe]=   0.000
#      27    Co        -----      60   [Nd/Fe]=   0.000      93   [Np/Fe]=   0.000
#      28    Ni        -----      61   [Pm/Fe]=   0.000      94   [Pu/Fe]=   0.000
#      29    Cu        -----      62   [Sm/Fe]=   0.000      95   [Am/Fe]=   0.000
#      30    Zn        -----      63   [Eu/Fe]=   0.000      96   [Cm/Fe]=   0.000
#      31   [Ga/Fe]=   0.000      64   [Gd/Fe]=   0.000      97   [Bk/Fe]=   0.000
#      32   [Ge/Fe]=   0.000      65   [Tb/Fe]=   0.000      98   [Cf/Fe]=   0.000
#      33   [As/Fe]=   0.000      66   [Dy/Fe]=   0.000      99   [Es/Fe]=   0.000
#
#
#  Individual variations of metal abundances (number fraction): log10(variation factor) (in dex)
#  Reference metallicity is in general NOT preserved Zref != Z
#
#       1   H    -----      34   Se   0.000      67   Ho   0.000
#       2   He   -----      35   Br   0.000      68   Er   0.000
#       3   Li   0.000      36   Kr   0.000      69   Tm   0.000
#       4   Be   0.000      37   Rb   0.000      70   Yb   0.000
#       5   B    0.000      38   Sr   0.000      71   Lu   0.000
#       6   C    0.000      39   Y    0.000      72   Hf   0.000
#       7   N    0.000      40   Zr   0.000      73   Ta   0.000
#       8   O    0.000      41   Nb   0.000      74   W    0.000
#       9   F    0.000      42   Mo   0.000      75   Re   0.000
#      10   Ne   0.000      43   Tc   0.000      76   Os   0.000
#      11   Na   0.000      44   Ru   0.000      77   Ir   0.000
#      12   Mg   0.000      45   Rh   0.000      78   Pt   0.000
#      13   Al   0.000      46   Pd   0.000      79   Au   0.000
#      14   Si   0.000      47   Ag   0.000      80   Hg   0.000
#      15   P    0.000      48   Cd   0.000      81   Tl   0.000
#      16   S    0.000      49   In   0.000      82   Pb   0.000
#      17   Cl   0.000      50   Sn   0.000      83   Bi   0.000
#      18   Ar   0.000      51   Sb   0.000      84   Po   0.000
#      19   K    0.000      52   Te   0.000      85   At   0.000
#      20   Ca   0.000      53   I    0.000      86   Rn   0.000
#      21   Sc   0.000      54   Xe   0.000      87   Fr   0.000
#      22   Ti   0.000      55   Cs   0.000      88   Ra   0.000
#      23   V    0.000      56   Ba   0.000      89   Ac   0.000
#      24   Cr   0.000      57   La   0.000      90   Th   0.000
#      25   Mn   0.000      58   Ce   0.000      91   Pa   0.000
#      26   Fe   0.000      59   Pr   0.000      92   U    0.000
#      27   Co   0.000      60   Nd   0.000      93   Np   0.000
#      28   Ni   0.000      61   Pm   0.000      94   Pu   0.000
#      29   Cu   0.000      62   Sm   0.000      95   Am   0.000
#      30   Zn   0.000      63   Eu   0.000      96   Cm   0.000
#      31   Ga   0.000      64   Gd   0.000      97   Bk   0.000
#      32   Ge   0.000      65   Tb   0.000      98   Cf   0.000
#      33   As   0.000      66   Dy   0.000      99   Es   0.000
#
#
#              VARIATION GRID OF C/O - C - N ABUNDANCES (in number fraction)
#
#          FCO = log10(variation factor) of C/O ratio
#
#
#           FC = log10(variation factor) of carbon abundance
#
#
#           FN = log10(variation factor) of nitrogen abundance
#
#
#           FO = FC - FCO = log10(variation factor) of oxygen abundance 
#
#
#              TOTAL NUMBER OF TABLES:   mh x mco x mc x mn =     1
#
#
# TABLE      1     X=  0.700000     Y=  0.280000     Zref= 2.000000E-02     Z= 2.000000E-02     FCO=  0.000   FC=  0.000   FN=  0.000   FO=  0.000  C/O=   4.8978E-01
#
#     Zi   element     ni/nz             Xi/Z            ni/nH            Xi/XH             <Ai>
#
#      3     Li     9.323684E-09     3.757845E-09     1.559024E-11     1.073670E-10       6.941739
#      4     Be     1.859891E-08     9.731966E-09     3.109946E-11     2.780562E-10       9.012183
#      5     B      2.627166E-07     1.649247E-07     4.392915E-10     4.712133E-09      10.812224
#      6     C      2.451814E-01     1.709837E-01     4.099707E-04     4.885249E-03      12.011137
#      7     N      6.158679E-02     5.008508E-02     1.029800E-04     1.431002E-03      14.006763
#      8     O      5.005962E-01     4.650221E-01     8.370527E-04     1.328635E-02      15.999375
#      9     F      2.688361E-05     2.965430E-05     4.495239E-08     8.472658E-07      18.998405
#     10     Ne     8.904049E-02     1.042809E-01     1.488856E-04     2.979455E-03      20.171321
#     11     Na     1.583024E-03     2.113028E-03     2.646993E-06     6.037223E-05      22.989771
#     12     Mg     2.814411E-02     3.972350E-02     4.706009E-05     1.134957E-03      24.309551
#     13     Al     2.184679E-03     3.422452E-03     3.653026E-06     9.778434E-05      26.981541
#     14     Si     2.627166E-02     4.284049E-02     4.392915E-05     1.224014E-03      28.085611
#     15     P      2.086832E-04     3.752879E-04     3.489416E-07     1.072251E-05      30.973765
#     16     S      1.583024E-02     2.947097E-02     2.646993E-05     8.420277E-04      32.064451
#     17     Cl     2.341464E-04     4.820356E-04     3.915190E-07     1.377245E-05      35.457532
#     18     Ar     1.859891E-03     4.313819E-03     3.109946E-06     1.232520E-04      39.947662
#     19     K      9.758600E-05     2.215449E-04     1.631747E-07     6.329854E-06      39.101298
#     20     Ca     1.696632E-03     3.947852E-03     2.836957E-06     1.127958E-04      40.076544
#     21     Sc     1.094933E-06     2.857969E-06     1.830850E-09     8.165625E-08      44.955917
#     22     Ti     7.753317E-05     2.155336E-04     1.296441E-07     6.158103E-06      47.878925
#     23     V      7.404360E-06     2.189994E-05     1.238092E-08     6.257126E-07      50.941572
#     24     Cr     3.463279E-04     1.045572E-03     5.790990E-07     2.987350E-05      51.997623
#     25     Mn     1.817136E-04     5.796206E-04     3.038455E-07     1.656059E-05      54.938046
#     26     Fe     2.341464E-02     7.592291E-02     3.915190E-05     2.169226E-03      55.847311
#     27     Co     6.158679E-05     2.107320E-04     1.029800E-07     6.020915E-06      58.933189
#     28     Ni     1.316702E-03     4.487945E-03     2.201673E-06     1.282270E-04      58.705254
#     29     Cu     1.201123E-05     4.431668E-05     2.008412E-08     1.266191E-06      63.547234
#     30     Zn     2.947729E-05     1.119080E-04     4.928932E-08     3.197372E-06      65.386875
#     31     Ga     5.616782E-07     2.273583E-06     9.391886E-10     6.495950E-08      69.717234
#     32     Ge     1.903214E-06     8.025819E-06     3.182386E-09     2.293091E-07      72.630452
#     33     As     1.736151E-07     7.552272E-07     2.903039E-10     2.157792E-08      74.921600
#     34     Se     1.903214E-06     8.728593E-06     3.182386E-09     2.493884E-07      78.990277
#     35     Br     3.158548E-07     1.465389E-06     5.281445E-10     4.186825E-08      79.906523
#     36     Kr     1.511428E-06     7.353928E-06     2.527277E-09     2.101122E-07      83.800924
#     37     Rb     2.947729E-07     1.462765E-06     4.928932E-10     4.179328E-08      85.468072
#     38     Sr     6.910151E-07     3.515251E-06     1.155454E-09     1.004357E-07      87.616461
#     39     Y      1.287027E-07     6.643562E-07     2.152052E-10     1.898161E-08      88.905867
#     40     Zr     2.947729E-07     1.561272E-06     4.928932E-10     4.460776E-08      91.223746
#     41     Nb     1.947545E-08     1.050549E-07     3.256513E-11     3.001567E-09      92.906380
#     42     Mo     6.158679E-08     3.428800E-07     1.029800E-10     9.796571E-09      95.889605
#     43     Tc     0.000000E+00     0.000000E+00     0.000000E+00     0.000000E+00      96.906390
#     44     Ru     5.122566E-08     3.005927E-07     8.565502E-11     8.588363E-09     101.066641
#     45     Rh     9.758600E-09     5.830546E-08     1.631747E-11     1.665870E-09     102.905511
#     46     Pd     3.626499E-08     2.240978E-07     6.063911E-11     6.402795E-09     106.430727
#     47     Ag     6.448928E-09     4.038921E-08     1.078333E-11     1.153977E-09     107.868530
#     48     Cd     4.360011E-08     2.845931E-07     7.290424E-11     8.131233E-09     112.422659
#     49     In     3.384446E-08     2.256221E-07     5.659171E-11     6.446346E-09     114.818279
#     50     Sn     7.404360E-08     5.104404E-07     1.238092E-10     1.458401E-08     118.733825
#     51     Sb     7.404360E-09     5.234457E-08     1.238092E-11     1.495559E-09     121.758986
#     52     Te     1.287027E-07     9.537093E-07     2.152052E-10     2.724884E-08     127.627845
#     53     I      2.395452E-08     1.765011E-07     4.005464E-11     5.042890E-09     126.904474
#     54     Xe     1.094933E-07     8.346586E-07     1.830850E-10     2.384739E-08     131.292004
#     55     Cs     9.990507E-09     7.709272E-08     1.670524E-11     2.202649E-09     132.905440
#     56     Ba     9.990507E-08     7.965774E-07     1.670524E-10     2.275935E-08     137.327464
#     57     La     1.094933E-08     8.830597E-08     1.830850E-11     2.523028E-09     138.905511
#     58     Ce     2.814411E-08     2.289570E-07     4.706009E-11     6.541629E-09     140.114588
#     59     Pr     3.796536E-09     3.106028E-08     6.348232E-12     8.874365E-10     140.907700
#     60     Nd     2.341464E-08     1.960919E-07     3.915190E-11     5.602624E-09     144.241079
#     61     Pm     0.000000E+00     0.000000E+00     0.000000E+00     0.000000E+00     144.912790
#     62     Sm     7.576830E-09     6.614742E-08     1.266931E-11     1.889926E-09     150.363469
#     63     Eu     2.395452E-09     2.113547E-08     4.005464E-12     6.038705E-10     151.964200
#     64     Gd     9.758600E-09     8.909990E-08     1.631747E-11     2.545711E-09     157.255784
#     65     Tb     5.881492E-10     5.427051E-09     9.834512E-13     1.550586E-10     158.925390
#     66     Dy     1.022322E-08     9.645489E-08     1.709436E-11     2.755854E-09     162.500111
#     67     Ho     1.347372E-09     1.290242E-08     2.252956E-12     3.686406E-10     164.930360
#     68     Er     6.302133E-09     6.120210E-08     1.053787E-11     1.748631E-09     167.261394
#     69     Tm     7.404360E-10     7.262536E-09     1.238092E-12     2.075010E-10     168.934240
#     70     Yb     8.904049E-09     8.945589E-08     1.488856E-11     2.555883E-09     173.036747
#     71     Lu     8.503301E-10     8.638257E-09     1.421847E-12     2.468073E-10     174.966749
#     72     Hf     5.616782E-09     5.820847E-08     9.391886E-12     1.663099E-09     178.490703
#     73     Ta     5.488928E-10     5.766657E-09     9.178100E-13     1.647616E-10     180.947907
#     74     W      9.540860E-09     1.018390E-07     1.595338E-11     2.909686E-09     183.841519
#     75     Re     1.410872E-09     1.525392E-08     2.359135E-12     4.358262E-10     186.213359
#     76     Os     2.086832E-08     2.304976E-07     3.489416E-11     6.585646E-09     190.237368
#     77     Ir     1.658011E-08     1.850377E-07     2.772380E-11     5.286793E-09     192.216095
#     78     Pt     4.671835E-08     5.291572E-07     7.811830E-11     1.511878E-08     195.080617
#     79     Au     7.576830E-09     8.664890E-08     1.266931E-11     2.475683E-09     196.966550
#     80     Hg     9.990507E-09     1.163576E-07     1.670524E-11     3.324503E-09     200.596900
#     81     Tl     5.881492E-09     6.979384E-08     9.834512E-12     1.994110E-09     204.383823
#     82     Pb     6.599143E-08     7.939617E-07     1.103450E-10     2.268462E-08     207.218721
#     83     Bi     3.796536E-09     4.606554E-08     6.348232E-12     1.316158E-09     208.980400
#     84     Po     0.000000E+00     0.000000E+00     0.000000E+00     0.000000E+00     208.982440
#     85     At     0.000000E+00     0.000000E+00     0.000000E+00     0.000000E+00     209.987040
#     86     Rn     0.000000E+00     0.000000E+00     0.000000E+00     0.000000E+00     222.017610
#     87     Fr     0.000000E+00     0.000000E+00     0.000000E+00     0.000000E+00     223.019760
#     88     Ra     0.000000E+00     0.000000E+00     0.000000E+00     0.000000E+00     226.025440
#     89     Ac     0.000000E+00     0.000000E+00     0.000000E+00     0.000000E+00     227.027770
#     90     Th     9.105159E-10     1.226676E-08     1.522484E-12     3.504788E-10     232.038080
#     91     Pa     0.000000E+00     0.000000E+00     0.000000E+00     0.000000E+00     231.035900
#     92     U      2.341464E-10     3.235939E-09     3.915190E-13     9.245541E-11     238.028942
#     93     Np     0.000000E+00     0.000000E+00     0.000000E+00     0.000000E+00     237.048190
#     94     Pu     0.000000E+00     0.000000E+00     0.000000E+00     0.000000E+00     244.064240
#     95     Am     0.000000E+00     0.000000E+00     0.000000E+00     0.000000E+00     243.061390
#     96     Cm     0.000000E+00     0.000000E+00     0.000000E+00     0.000000E+00     247.070380
#     97     Bk     0.000000E+00     0.000000E+00     0.000000E+00     0.000000E+00     247.070320
#     98     Cf     0.000000E+00     0.000000E+00     0.000000E+00     0.000000E+00     251.079610
#     99     Es     0.000000E+00     0.000000E+00     0.000000E+00     0.000000E+00     254.088050
#
#
4.500  -0.4242  -0.4221  -0.4197  -0.4171  -0.4145  -0.4116  -0.4083  -0.4046  -0.4005  -0.3961  -0.3911  -0.3855  -0.3791  -0.3718  -0.3636  -0.3541  -0.3433  -0.3308  -0.3166  -0.3013  -0.2843  -0.2654  -0.2448  -0.2223  -0.1992  -0.1745  -0.1478  -0.1188  -0.0875  -0.0553  -0.0208   0.0167   0.0576   0.1020   0.1492   0.1997   0.2542   0.3129   0.3754   0.4418   0.5121   0.5861   0.6637   0.7447   0.8296   0.9177   1.0087   1.1021   1.1979   1.2962   1.3968   1.4992   1.6032   1.7088   1.8147   1.9212   2.0289   2.1377   2.2474   2.3551   2.4617   2.5691   2.6775   2.7865   2.8929   2.9983   3.1047   3.2118   3.3193   3.4255   3.5309   3.6363   3.7417   3.8465   3.9496   4.0501   4.1490   4.2460   4.3400   4.4312   4.5183   4.6016   4.6808   4.7555   4.8251   4.8901   4.9494   5.0037   5.0536   5.0989   5.1400
4.450  -0.4433  -0.4413  -0.4392  -0.4369  -0.4343  -0.4314  -0.4283  -0.4246  -0.4204  -0.4150  -0.4092  -0.4036  -0.3972  -0.3898  -0.3813  -0.3719  -0.3622  -0.3510  -0.3385  -0.3244  -0.3089  -0.2934  -0.2762  -0.2573  -0.2366  -0.2141  -0.1909  -0.1656  -0.1380  -0.1077  -0.0748  -0.0390   0.0001   0.0428   0.0893   0.1398   0.1951   0.2545   0.3181   0.3858   0.4576   0.5343   0.6146   0.6985   0.7857   0.8758   0.9687   1.0641   1.1617   1.2612   1.3622   1.4633   1.5659   1.6698   1.7750   1.8808   1.9846   2.0894   2.1950   2.3014   2.4081   2.5119   2.6163   2.7213   2.8269   2.9330   3.0364   3.1404   3.2447   3.3493   3.4538   3.5559   3.6575   3.7583   3.8582   3.9566   4.0522   4.1446   4.2345   4.3213   4.4043   4.4834   4.5580   4.6278   4.6933   4.7542   4.8107   4.8629   4.9108   4.9545   4.9947
4.400  -0.4526  -0.4520  -0.4515  -0.4506  -0.4492  -0.4470  -0.4443  -0.4415  -0.4382  -0.4341  -0.4291  -0.4232  -0.4172  -0.4107  -0.4034  -0.3949  -0.3853  -0.3753  -0.3646  -0.3528  -0.3397  -0.3252  -0.3095  -0.2923  -0.2734  -0.2526  -0.2298  -0.2047  -0.1771  -0.1468  -0.1134  -0.0767  -0.0359   0.0090   0.0580   0.1110   0.1681   0.2300   0.2964   0.3669   0.4414   0.5196   0.6012   0.6860   0.7739   0.8643   0.9570   1.0505   1.1451   1.2415   1.3393   1.4386   1.5376   1.6372   1.7381   1.8402   1.9435   2.0463   2.1492   2.2529   2.3573   2.4621   2.5657   2.6684   2.7713   2.8745   2.9779   3.0800   3.1804   3.2808   3.3808   3.4806   3.5793   3.6748   3.7689   3.8610   3.9507   4.0375   4.1202   4.1988   4.2736   4.3444   4.4109   4.4732   4.5313   4.5845   4.6341   4.6801   4.7227   4.7622   4.7990
4.350  -0.4701  -0.4685  -0.4664  -0.4640  -0.4617  -0.4590  -0.4557  -0.4517  -0.4473  -0.4428  -0.4379  -0.4324  -0.4263  -0.4197  -0.4129  -0.4054  -0.3974  -0.3885  -0.3788  -0.3682  -0.3563  -0.3431  -0.3283  -0.3116  -0.2929  -0.2719  -0.2485  -0.2223  -0.1930  -0.1604  -0.1243  -0.0846  -0.0411   0.0061   0.0570   0.1119   0.1706   0.2333   0.2995   0.3684   0.4409   0.5168   0.5960   0.6781   0.7622   0.8488   0.9378   1.0288   1.1218   1.2163   1.3123   1.4097   1.5082   1.6077   1.7077   1.8084   1.9095   2.0110   2.1126   2.2131   2.3137   2.4145   2.5155   2.6167   2.7160   2.8154   2.9150   3.0149   3.1147   3.2124   3.3086   3.4037   3.4973   3.5888   3.6775   3.7614   3.8422   3.9192   3.9925   4.0617   4.1268   4.1866   4.2424   4.2944   4.3429   4.3880   4.4301   4.4694   4.5056   4.5391   4.5707
4.300  -0.4807  -0.4795  -0.4779  -0.4756  -0.4733  -0.4711  -0.4687  -0.4660  -0.4630  -0.4597  -0.4559  -0.4519  -0.4475  -0.4426  -0.4373  -0.4314  -0.4247  -0.4172  -0.4087  -0.3989  -0.3877  -0.3749  -0.3602  -0.3434  -0.3243  -0.3028  -0.2786  -0.2514  -0.2208  -0.1868  -0.1498  -0.1095  -0.0654  -0.0173   0.0347   0.0896   0.1479   0.2100   0.2758   0.3452   0.4182   0.4945   0.5738   0.6560   0.7408   0.8285   0.9187   1.0105   1.1036   1.1980   1.2938   1.3907   1.4883   1.5864   1.6849   1.7836   1.8826   1.9820   2.0820   2.1825   2.2828   2.3828   2.4833   2.5841   2.6851   2.7857   2.8829   2.9796   3.0754   3.1698   3.2621   3.3495   3.4330   3.5133   3.5902   3.6633   3.7324   3.7958   3.8547   3.9098   3.9613   4.0093   4.0541   4.0959   4.1345   4.1701   4.2035   4.2351   4.2650   4.2936   4.3210
4.250  -0.4874  -0.4861  -0.4846  -0.4828  -0.4808  -0.4784  -0.4758  -0.4728  -0.4696  -0.4661  -0.4621  -0.4577  -0.4531  -0.4481  -0.4424  -0.4359  -0.4285  -0.4204  -0.4111  -0.4002  -0.3876  -0.3731  -0.3578  -0.3403  -0.3203  -0.2974  -0.2717  -0.2443  -0.2137  -0.1796  -0.1420  -0.1008  -0.0563  -0.0080   0.0442   0.1001   0.1598   0.2241   0.2919   0.3631   0.4374   0.5148   0.5959   0.6794   0.7647   0.8518   0.9403   1.0312   1.1232   1.2160   1.3098   1.4044   1.5003   1.5971   1.6949   1.7935   1.8929   1.9924   2.0924   2.1928   2.2933   2.3937   2.4919   2.5886   2.6842   2.7785   2.8708   2.9601   3.0439   3.1246   3.2020   3.2757   3.3456   3.4110   3.4706   3.5265   3.5789   3.6280   3.6739   3.7168   3.7570   3.7933   3.8275   3.8598   3.8904   3.9196   3.9475   3.9744   4.0004   4.0252   4.0491
4.200  -0.4897  -0.4876  -0.4853  -0.4829  -0.4802  -0.4772  -0.4737  -0.4700  -0.4665  -0.4629  -0.4589  -0.4544  -0.4494  -0.4446  -0.4395  -0.4336  -0.4267  -0.4186  -0.4099  -0.4001  -0.3886  -0.3752  -0.3594  -0.3417  -0.3215  -0.2985  -0.2722  -0.2426  -0.2093  -0.1724  -0.1317  -0.0873  -0.0391   0.0134   0.0700   0.1301   0.1937   0.2604   0.3307   0.4044   0.4807   0.5592   0.6400   0.7233   0.8093   0.8971   0.9866   1.0776   1.1703   1.2649   1.3606   1.4571   1.5545   1.6523   1.7500   1.8478   1.9457   2.0434   2.1405   2.2341   2.3269   2.4184   2.5081   2.5957   2.6785   2.7579   2.8341   2.9070   2.9763   3.0419   3.1020   3.1576   3.2096   3.2582   3.3037   3.3462   3.3860   3.4227   3.4561   3.4876   3.5175   3.5460   3.5732   3.5994   3.6247   3.6495   3.6726   3.6952   3.7177   3.7401   3.7627
4.150  -0.4835  -0.4818  -0.4800  -0.4779  -0.4757  -0.4739  -0.4719  -0.4698  -0.4674  -0.4648  -0.4624  -0.4597  -0.4566  -0.4529  -0.4485  -0.4436  -0.4376  -0.4304  -0.4218  -0.4116  -0.3996  -0.3855  -0.3690  -0.3498  -0.3278  -0.3025  -0.2740  -0.2422  -0.2067  -0.1674  -0.1237  -0.0761  -0.0246   0.0308   0.0902   0.1540   0.2218   0.2932   0.3681   0.4463   0.5281   0.6129   0.7001   0.7893   0.8804   0.9731   1.0671   1.1618   1.2574   1.3535   1.4489   1.5439   1.6387   1.7327   1.8259   1.9171   2.0058   2.0926   2.1775   2.2602   2.3400   2.4150   2.4869   2.5554   2.6202   2.6813   2.7381   2.7908   2.8398   2.8854   2.9280   2.9678   3.0050   3.0399   3.0724   3.1021   3.1302   3.1571   3.1829   3.2077   3.2318   3.2555   3.2787   3.3011   3.3229   3.3448   3.3668   3.3891   3.4117   3.4347   3.4583
4.100  -0.4982  -0.4978  -0.4973  -0.4968  -0.4962  -0.4955  -0.4947  -0.4938  -0.4926  -0.4912  -0.4895  -0.4874  -0.4848  -0.4818  -0.4780  -0.4734  -0.4680  -0.4612  -0.4531  -0.4433  -0.4316  -0.4176  -0.4009  -0.3814  -0.3586  -0.3324  -0.3022  -0.2678  -0.2290  -0.1860  -0.1380  -0.0852  -0.0273   0.0352   0.1022   0.1734   0.2485   0.3273   0.4093   0.4940   0.5811   0.6699   0.7603   0.8518   0.9442   1.0373   1.1303   1.2224   1.3142   1.4051   1.4952   1.5839   1.6695   1.7530   1.8339   1.9117   1.9864   2.0573   2.1239   2.1863   2.2452   2.3003   2.3517   2.3996   2.4435   2.4846   2.5228   2.5586   2.5922   2.6237   2.6535   2.6808   2.7073   2.7327   2.7571   2.7808   2.8041   2.8269   2.8495   2.8720   2.8945   2.9167   2.9387   2.9610   2.9838   3.0071   3.0310   3.0555   3.0807   3.1068   3.1336
4.050  -0.4995  -0.4995  -0.4995  -0.4996  -0.4997  -0.4999  -0.5001  -0.5002  -0.5002  -0.5001  -0.4996  -0.4988  -0.4974  -0.4951  -0.4919  -0.4876  -0.4817  -0.4741  -0.4649  -0.4530  -0.4386  -0.4213  -0.4007  -0.3765  -0.3485  -0.3165  -0.2802  -0.2396  -0.1944  -0.1448  -0.0907  -0.0318   0.0317   0.0993   0.1709   0.2461   0.3246   0.4061   0.4892   0.5736   0.6596   0.7464   0.8337   0.9201   1.0056   1.0901   1.1732   1.2545   1.3332   1.4087   1.4812   1.5500   1.6155   1.6773   1.7352   1.7893   1.8398   1.8868   1.9304   1.9707   2.0084   2.0435   2.0763   2.1070   2.1354   2.1628   2.1888   2.2136   2.2376   2.2609   2.2837   2.3053   2.3273   2.3492   2.3712   2.3935   2.4160   2.4388   2.4621   2.4841   2.5075   2.5314   2.5561   2.5814   2.6076   2.6344   2.6621   2.6906   2.7200   2.7500   2.7791
4.000  -0.5258  -0.5276  -0.5291  -0.5305  -0.5315  -0.5321  -0.5322  -0.5319  -0.5310  -0.5294  -0.5271  -0.5240  -0.5200  -0.5149  -0.5086  -0.5009  -0.4916  -0.4805  -0.4674  -0.4524  -0.4343  -0.4134  -0.3893  -0.3619  -0.3308  -0.2962  -0.2577  -0.2153  -0.1686  -0.1180  -0.0639  -0.0058   0.0560   0.1218   0.1908   0.2617   0.3348   0.4094   0.4849   0.5607   0.6355   0.7090   0.7809   0.8505   0.9174   0.9809   1.0415   1.0985   1.1519   1.2017   1.2482   1.2913   1.3314   1.3688   1.4035   1.4355   1.4658   1.4942   1.5210   1.5466   1.5705   1.5939   1.6165   1.6386   1.6600   1.6813   1.7018   1.7227   1.7435   1.7647   1.7860   1.8078   1.8293   1.8519   1.8751   1.8989   1.9232   1.9485   1.9744   2.0013   2.0280   2.0565   2.0860   2.1165   2.1480   2.1805   2.2139   2.2483   2.2811   2.3168   2.3530
3.950  -0.5407  -0.5399  -0.5388  -0.5375  -0.5358  -0.5338  -0.5314  -0.5286  -0.5254  -0.5215  -0.5170  -0.5116  -0.5053  -0.4978  -0.4891  -0.4790  -0.4675  -0.4544  -0.4392  -0.4219  -0.4021  -0.3808  -0.3565  -0.3292  -0.2991  -0.2657  -0.2300  -0.1916  -0.1502  -0.1059  -0.0590  -0.0102   0.0402   0.0922   0.1449   0.1981   0.2512   0.3031   0.3537   0.4023   0.4488   0.4928   0.5343   0.5733   0.6099   0.6441   0.6762   0.7060   0.7343   0.7608   0.7858   0.8093   0.8324   0.8544   0.8759   0.8966   0.9170   0.9371   0.9573   0.9772   0.9974   1.0179   1.0388   1.0601   1.0813   1.1035   1.1263   1.1497   1.1738   1.1988   1.2240   1.2506   1.2780   1.3063   1.3354   1.3653   1.3954   1.4271   1.4595   1.4929   1.5276   1.5634   1.6000   1.6365   1.6751   1.7144   1.7548   1.7962   1.8384   1.8816   1.9239
3.900  -0.5388  -0.5373  -0.5356  -0.5337  -0.5316  -0.5292  -0.5265  -0.5235  -0.5201  -0.5162  -0.5117  -0.5064  -0.5003  -0.4937  -0.4860  -0.4772  -0.4672  -0.4559  -0.4440  -0.4308  -0.4161  -0.4003  -0.3831  -0.3656  -0.3466  -0.3266  -0.3062  -0.2851  -0.2638  -0.2427  -0.2219  -0.2015  -0.1815  -0.1621  -0.1435  -0.1254  -0.1079  -0.0909  -0.0747  -0.0587  -0.0431  -0.0279  -0.0127   0.0024   0.0175   0.0326   0.0480   0.0635   0.0794   0.0957   0.1124   0.1298   0.1478   0.1665   0.1858   0.2061   0.2270   0.2486   0.2713   0.2948   0.3192   0.3440   0.3704   0.3977   0.4259   0.4551   0.4848   0.5155   0.5470   0.5794   0.6123   0.6462   0.6813   0.7171   0.7537   0.7908   0.8288   0.8676   0.9070   0.9472   0.9880   1.0296   1.0729   1.1170   1.1620   1.2079   1.2546   1.3017   1.3502   1.3996   1.4500
3.850  -0.5378  -0.5366  -0.5354  -0.5341  -0.5331  -0.5321  -0.5311  -0.5301  -0.5290  -0.5282  -0.5277  -0.5274  -0.5273  -0.5274  -0.5280  -0.5294  -0.5315  -0.5344  -0.5382  -0.5430  -0.5491  -0.5564  -0.5649  -0.5744  -0.5849  -0.5962  -0.6082  -0.6209  -0.6336  -0.6464  -0.6591  -0.6716  -0.6839  -0.6953  -0.7058  -0.7153  -0.7237  -0.7308  -0.7364  -0.7405  -0.7427  -0.7431  -0.7416  -0.7381  -0.7328  -0.7252  -0.7154  -0.7036  -0.6898  -0.6741  -0.6563  -0.6366  -0.6154  -0.5920  -0.5672  -0.5410  -0.5134  -0.4843  -0.4541  -0.4226  -0.3901  -0.3565  -0.3221  -0.2866  -0.2502  -0.2128  -0.1748  -0.1360  -0.0965  -0.0567  -0.0159   0.0255   0.0674   0.1099   0.1527   0.1972   0.2423   0.2882   0.3345   0.3816   0.4294   0.4779   0.5270   0.5769   0.6284   0.6809   0.7344   0.7883   0.8439   0.9007   0.9585
3.800  -0.5623  -0.5673  -0.5734  -0.5806  -0.5892  -0.5994  -0.6112  -0.6248  -0.6402  -0.6575  -0.6767  -0.6976  -0.7203  -0.7446  -0.7705  -0.7978  -0.8264  -0.8561  -0.8868  -0.9184  -0.9507  -0.9836  -1.0169  -1.0506  -1.0844  -1.1181  -1.1518  -1.1851  -1.2180  -1.2502  -1.2817  -1.3122  -1.3415  -1.3694  -1.3955  -1.4198  -1.4420  -1.4616  -1.4785  -1.4929  -1.5039  -1.5118  -1.5162  -1.5171  -1.5145  -1.5086  -1.4989  -1.4859  -1.4695  -1.4501  -1.4277  -1.4028  -1.3754  -1.3457  -1.3141  -1.2806  -1.2455  -1.2091  -1.1712  -1.1322  -1.0923  -1.0512  -1.0093  -0.9669  -0.9235  -0.8793  -0.8346  -0.7891  -0.7426  -0.6954  -0.6475  -0.5990  -0.5498  -0.4999  -0.4493  -0.3980  -0.3458  -0.2922  -0.2374  -0.1814  -0.1244  -0.0661  -0.0067   0.0541   0.1162   0.1793   0.2444   0.3109   0.3790   0.4485   0.5193
3.750  -0.7604  -0.7891  -0.8196  -0.8518  -0.8854  -0.9205  -0.9568  -0.9943  -1.0328  -1.0721  -1.1122  -1.1530  -1.1943  -1.2361  -1.2783  -1.3208  -1.3635  -1.4065  -1.4495  -1.4926  -1.5357  -1.5786  -1.6212  -1.6635  -1.7057  -1.7475  -1.7888  -1.8296  -1.8696  -1.9088  -1.9471  -1.9841  -2.0198  -2.0538  -2.0861  -2.1164  -2.1442  -2.1693  -2.1913  -2.2100  -2.2251  -2.2362  -2.2432  -2.2459  -2.2445  -2.2387  -2.2287  -2.2146  -2.1965  -2.1748  -2.1497  -2.1213  -2.0901  -2.0565  -2.0205  -1.9824  -1.9424  -1.9008  -1.8576  -1.8130  -1.7673  -1.7202  -1.6719  -1.6222  -1.5714  -1.5195  -1.4665  -1.4122  -1.3566  -1.2997  -1.2414  -1.1817  -1.1208  -1.0584  -0.9943  -0.9285  -0.8609  -0.7915  -0.7203  -0.6472  -0.5724  -0.4960  -0.4181  -0.3391  -0.2590  -0.1784  -0.0974  -0.0163   0.0649   0.1459   0.2264
3.700  -1.3099  -1.3541  -1.3988  -1.4438  -1.4890  -1.5344  -1.5800  -1.6256  -1.6714  -1.7171  -1.7629  -1.8087  -1.8543  -1.8999  -1.9454  -1.9906  -2.0356  -2.0804  -2.1249  -2.1690  -2.2127  -2.2563  -2.2994  -2.3421  -2.3842  -2.4257  -2.4666  -2.5067  -2.5459  -2.5841  -2.6213  -2.6576  -2.6926  -2.7260  -2.7577  -2.7873  -2.8146  -2.8394  -2.8614  -2.8802  -2.8958  -2.9079  -2.9161  -2.9200  -2.9196  -2.9148  -2.9056  -2.8920  -2.8744  -2.8526  -2.8270  -2.7975  -2.7643  -2.7277  -2.6877  -2.6447  -2.5987  -2.5498  -2.4981  -2.4436  -2.3864  -2.3265  -2.2639  -2.1988  -2.1311  -2.0609  -1.9879  -1.9125  -1.8348  -1.7551  -1.6736  -1.5906  -1.5061  -1.4206  -1.3345  -1.2479  -1.1610  -1.0744  -0.9890  -0.9042  -0.8202  -0.7371  -0.6549  -0.5740  -0.4949  -0.4169  -0.3401  -0.2647  -0.1905  -0.1177  -0.0468
3.690  -1.4521  -1.4977  -1.5435  -1.5894  -1.6356  -1.6818  -1.7280  -1.7743  -1.8205  -1.8667  -1.9129  -1.9589  -2.0047  -2.0504  -2.0959  -2.1412  -2.1862  -2.2310  -2.2754  -2.3195  -2.3632  -2.4064  -2.4491  -2.4913  -2.5329  -2.5740  -2.6144  -2.6540  -2.6927  -2.7305  -2.7671  -2.8024  -2.8363  -2.8687  -2.8994  -2.9283  -2.9549  -2.9789  -3.0002  -3.0183  -3.0330  -3.0440  -3.0512  -3.0543  -3.0534  -3.0480  -3.0383  -3.0241  -3.0056  -2.9828  -2.9559  -2.9249  -2.8899  -2.8510  -2.8084  -2.7624  -2.7129  -2.6601  -2.6041  -2.5450  -2.4827  -2.4174  -2.3492  -2.2781  -2.2043  -2.1280  -2.0492  -1.9683  -1.8857  -1.8016  -1.7165  -1.6306  -1.5442  -1.4575  -1.3709  -1.2847  -1.1991  -1.1140  -1.0301  -0.9475  -0.8660  -0.7856  -0.7064  -0.6285  -0.5520  -0.4769  -0.4032  -0.3308  -0.2597  -0.1900  -0.1217
3.680  -1.5984  -1.6447  -1.6911  -1.7376  -1.7842  -1.8307  -1.8772  -1.9236  -1.9699  -2.0161  -2.0622  -2.1080  -2.1537  -2.1991  -2.2443  -2.2891  -2.3336  -2.3778  -2.4216  -2.4650  -2.5081  -2.5506  -2.5925  -2.6339  -2.6747  -2.7148  -2.7540  -2.7925  -2.8302  -2.8669  -2.9026  -2.9369  -2.9698  -3.0011  -3.0306  -3.0581  -3.0834  -3.1062  -3.1265  -3.1437  -3.1576  -3.1679  -3.1744  -3.1768  -3.1749  -3.1688  -3.1582  -3.1430  -3.1234  -3.0993  -3.0709  -3.0381  -3.0011  -2.9600  -2.9147  -2.8652  -2.8119  -2.7548  -2.6941  -2.6300  -2.5625  -2.4917  -2.4177  -2.3410  -2.2618  -2.1805  -2.0974  -2.0127  -1.9267  -1.8400  -1.7529  -1.6659  -1.5790  -1.4926  -1.4069  -1.3219  -1.2379  -1.1549  -1.0730  -0.9925  -0.9133  -0.8354  -0.7587  -0.6834  -0.6094  -0.5368  -0.4656  -0.3957  -0.3271  -0.2599  -0.1939
3.670  -1.7492  -1.7960  -1.8427  -1.8894  -1.9360  -1.9826  -2.0290  -2.0753  -2.1214  -2.1673  -2.2130  -2.2584  -2.3036  -2.3485  -2.3930  -2.4372  -2.4810  -2.5244  -2.5674  -2.6098  -2.6517  -2.6931  -2.7341  -2.7745  -2.8142  -2.8532  -2.8914  -2.9287  -2.9651  -3.0005  -3.0347  -3.0678  -3.0997  -3.1299  -3.1584  -3.1849  -3.2091  -3.2309  -3.2499  -3.2659  -3.2786  -3.2879  -3.2933  -3.2946  -3.2916  -3.2842  -3.2722  -3.2556  -3.2343  -3.2082  -3.1774  -3.1419  -3.1017  -3.0570  -3.0077  -2.9541  -2.8960  -2.8337  -2.7676  -2.6979  -2.6249  -2.5488  -2.4698  -2.3885  -2.3052  -2.2205  -2.1346  -2.0479  -1.9608  -1.8736  -1.7867  -1.7003  -1.6146  -1.5298  -1.4460  -1.3632  -1.2816  -1.2012  -1.1219  -1.0438  -0.9674  -0.8921  -0.8182  -0.7456  -0.6742  -0.6042  -0.5354  -0.4679  -0.4017  -0.3366  -0.2727
3.660  -1.9027  -1.9494  -1.9960  -2.0426  -2.0890  -2.1352  -2.1812  -2.2270  -2.2726  -2.3180  -2.3630  -2.4077  -2.4521  -2.4960  -2.5396  -2.5827  -2.6256  -2.6681  -2.7100  -2.7514  -2.7922  -2.8324  -2.8720  -2.9110  -2.9492  -2.9868  -3.0237  -3.0599  -3.0950  -3.1291  -3.1621  -3.1937  -3.2239  -3.2526  -3.2795  -3.3047  -3.3277  -3.3482  -3.3660  -3.3807  -3.3920  -3.3997  -3.4035  -3.4032  -3.3986  -3.3894  -3.3754  -3.3565  -3.3326  -3.3038  -3.2698  -3.2306  -3.1863  -3.1371  -3.0831  -3.0244  -2.9613  -2.8939  -2.8225  -2.7477  -2.6699  -2.5896  -2.5072  -2.4229  -2.3375  -2.2512  -2.1644  -2.0776  -1.9908  -1.9046  -1.8192  -1.7346  -1.6510  -1.5685  -1.4872  -1.4072  -1.3284  -1.2507  -1.1742  -1.0989  -1.0248  -0.9525  -0.8815  -0.8116  -0.7429  -0.6754  -0.6090  -0.5438  -0.4797  -0.4166  -0.3545
3.650  -2.0599  -2.1065  -2.1529  -2.1991  -2.2451  -2.2909  -2.3364  -2.3816  -2.4264  -2.4709  -2.5151  -2.5589  -2.6023  -2.6452  -2.6876  -2.7295  -2.7710  -2.8119  -2.8522  -2.8921  -2.9317  -2.9706  -3.0089  -3.0464  -3.0832  -3.1192  -3.1543  -3.1885  -3.2216  -3.2543  -3.2858  -3.3160  -3.3447  -3.3718  -3.3970  -3.4202  -3.4411  -3.4595  -3.4755  -3.4882  -3.4974  -3.5028  -3.5041  -3.5012  -3.4938  -3.4817  -3.4647  -3.4425  -3.4150  -3.3821  -3.3438  -3.3001  -3.2511  -3.1968  -3.1377  -3.0740  -3.0061  -2.9344  -2.8591  -2.7808  -2.7001  -2.6176  -2.5337  -2.4487  -2.3630  -2.2771  -2.1913  -2.1059  -2.0211  -1.9371  -1.8541  -1.7721  -1.6912  -1.6115  -1.5329  -1.4556  -1.3798  -1.3050  -1.2315  -1.1591  -1.0878  -1.0176  -0.9490  -0.8815  -0.8150  -0.7496  -0.6851  -0.6216  -0.5589  -0.4973  -0.4365
3.640  -2.2246  -2.2708  -2.3167  -2.3624  -2.4079  -2.4531  -2.4979  -2.5424  -2.5865  -2.6302  -2.6735  -2.7163  -2.7586  -2.8005  -2.8420  -2.8830  -2.9234  -2.9632  -3.0024  -3.0409  -3.0788  -3.1160  -3.1524  -3.1885  -3.2238  -3.2583  -3.2919  -3.3246  -3.3561  -3.3865  -3.4156  -3.4432  -3.4697  -3.4946  -3.5175  -3.5383  -3.5567  -3.5725  -3.5853  -3.5948  -3.6009  -3.6031  -3.6011  -3.5945  -3.5830  -3.5664  -3.5445  -3.5173  -3.4848  -3.4467  -3.4030  -3.3540  -3.2998  -3.2406  -3.1767  -3.1086  -3.0368  -2.9618  -2.8840  -2.8038  -2.7220  -2.6389  -2.5550  -2.4708  -2.3865  -2.3025  -2.2191  -2.1363  -2.0543  -1.9731  -1.8934  -1.8148  -1.7374  -1.6612  -1.5861  -1.5122  -1.4395  -1.3681  -1.2978  -1.2287  -1.1607  -1.0938  -1.0279  -0.9630  -0.8991  -0.8361  -0.7739  -0.7124  -0.6517  -0.5918  -0.5326
3.630  -2.3908  -2.4365  -2.4819  -2.5269  -2.5716  -2.6160  -2.6599  -2.7034  -2.7466  -2.7893  -2.8316  -2.8733  -2.9146  -2.9553  -2.9954  -3.0350  -3.0740  -3.1125  -3.1504  -3.1877  -3.2242  -3.2601  -3.2952  -3.3296  -3.3631  -3.3956  -3.4273  -3.4581  -3.4877  -3.5161  -3.5430  -3.5685  -3.5922  -3.6141  -3.6339  -3.6517  -3.6669  -3.6792  -3.6884  -3.6942  -3.6962  -3.6941  -3.6876  -3.6764  -3.6602  -3.6388  -3.6119  -3.5795  -3.5416  -3.4983  -3.4496  -3.3958  -3.3373  -3.2743  -3.2070  -3.1361  -3.0621  -2.9855  -2.9067  -2.8265  -2.7453  -2.6634  -2.5813  -2.4993  -2.4177  -2.3366  -2.2564  -2.1770  -2.0986  -2.0213  -1.9450  -1.8698  -1.7957  -1.7227  -1.6509  -1.5802  -1.5106  -1.4420  -1.3745  -1.3080  -1.2424  -1.1778  -1.1141  -1.0511  -0.9889  -0.9273  -0.8664  -0.8061  -0.7464  -0.6873  -0.6289
3.620  -2.5581  -2.6029  -2.6474  -2.6915  -2.7352  -2.7785  -2.8213  -2.8636  -2.9055  -2.9468  -2.9877  -3.0280  -3.0678  -3.1071  -3.1458  -3.1840  -3.2215  -3.2583  -3.2945  -3.3300  -3.3648  -3.3990  -3.4324  -3.4649  -3.4965  -3.5271  -3.5566  -3.5849  -3.6120  -3.6378  -3.6620  -3.6846  -3.7053  -3.7239  -3.7402  -3.7540  -3.7650  -3.7731  -3.7778  -3.7788  -3.7758  -3.7686  -3.7568  -3.7401  -3.7184  -3.6915  -3.6592  -3.6216  -3.5785  -3.5306  -3.4778  -3.4205  -3.3589  -3.2935  -3.2246  -3.1527  -3.0784  -3.0022  -2.9245  -2.8458  -2.7666  -2.6873  -2.6082  -2.5294  -2.4511  -2.3737  -2.2971  -2.2215  -2.1468  -2.0731  -2.0004  -1.9287  -1.8580  -1.7884  -1.7198  -1.6522  -1.5856  -1.5199  -1.4551  -1.3910  -1.3277  -1.2651  -1.2031  -1.1417  -1.0808  -1.0203  -0.9603  -0.9006  -0.8414  -0.7825  -0.7241
3.610  -2.7268  -2.7706  -2.8139  -2.8568  -2.8992  -2.9411  -2.9825  -3.0235  -3.0639  -3.1038  -3.1432  -3.1819  -3.2201  -3.2577  -3.2947  -3.3311  -3.3670  -3.4021  -3.4366  -3.4703  -3.5032  -3.5353  -3.5665  -3.5967  -3.6260  -3.6541  -3.6810  -3.7066  -3.7307  -3.7532  -3.7740  -3.7928  -3.8095  -3.8239  -3.8358  -3.8449  -3.8510  -3.8538  -3.8531  -3.8487  -3.8402  -3.8273  -3.8099  -3.7878  -3.7608  -3.7289  -3.6920  -3.6502  -3.6036  -3.5524  -3.4969  -3.4375  -3.3745  -3.3084  -3.2394  -3.1682  -3.0952  -3.0209  -2.9456  -2.8698  -2.7938  -2.7182  -2.6428  -2.5680  -2.4938  -2.4202  -2.3475  -2.2756  -2.2047  -2.1345  -2.0653  -1.9970  -1.9295  -1.8630  -1.7974  -1.7326  -1.6685  -1.6052  -1.5426  -1.4805  -1.4189  -1.3578  -1.2970  -1.2365  -1.1763  -1.1163  -1.0564  -0.9967  -0.9372  -0.8779  -0.8188
3.600  -2.8977  -2.9402  -2.9822  -3.0238  -3.0648  -3.1053  -3.1452  -3.1847  -3.2235  -3.2618  -3.2995  -3.3366  -3.3732  -3.4091  -3.4444  -3.4790  -3.5129  -3.5460  -3.5784  -3.6100  -3.6406  -3.6703  -3.6990  -3.7265  -3.7528  -3.7778  -3.8013  -3.8232  -3.8434  -3.8618  -3.8781  -3.8922  -3.9040  -3.9132  -3.9197  -3.9232  -3.9237  -3.9209  -3.9145  -3.9044  -3.8904  -3.8723  -3.8499  -3.8231  -3.7918  -3.7560  -3.7157  -3.6709  -3.6220  -3.5691  -3.5125  -3.4526  -3.3898  -3.3245  -3.2571  -3.1882  -3.1180  -3.0471  -2.9758  -2.9043  -2.8328  -2.7616  -2.6908  -2.6205  -2.5506  -2.4814  -2.4129  -2.3450  -2.2778  -2.2113  -2.1455  -2.0805  -2.0162  -1.9526  -1.8897  -1.8273  -1.7655  -1.7041  -1.6432  -1.5825  -1.5220  -1.4618  -1.4016  -1.3414  -1.2812  -1.2209  -1.1606  -1.1002  -1.0397  -0.9792  -0.9188
3.590  -3.0627  -3.1033  -3.1434  -3.1830  -3.2219  -3.2603  -3.2981  -3.3353  -3.3720  -3.4080  -3.4434  -3.4781  -3.5122  -3.5456  -3.5782  -3.6101  -3.6412  -3.6714  -3.7006  -3.7288  -3.7559  -3.7819  -3.8066  -3.8299  -3.8517  -3.8720  -3.8906  -3.9073  -3.9221  -3.9348  -3.9454  -3.9537  -3.9595  -3.9629  -3.9636  -3.9616  -3.9567  -3.9487  -3.9376  -3.9232  -3.9053  -3.8836  -3.8582  -3.8288  -3.7954  -3.7580  -3.7166  -3.6713  -3.6224  -3.5701  -3.5147  -3.4566  -3.3962  -3.3339  -3.2700  -3.2050  -3.1391  -3.0726  -3.0059  -2.9389  -2.8720  -2.8052  -2.7386  -2.6724  -2.6065  -2.5410  -2.4760  -2.4115  -2.3475  -2.2842  -2.2213  -2.1591  -2.0973  -2.0360  -1.9751  -1.9146  -1.8542  -1.7941  -1.7341  -1.6740  -1.6139  -1.5535  -1.4929  -1.4321  -1.3708  -1.3091  -1.2470  -1.1845  -1.1216  -1.0585  -0.9953
3.580  -3.2237  -3.2621  -3.2999  -3.3371  -3.3737  -3.4097  -3.4451  -3.4798  -3.5139  -3.5473  -3.5800  -3.6120  -3.6433  -3.6736  -3.7032  -3.7317  -3.7593  -3.7858  -3.8111  -3.8352  -3.8579  -3.8793  -3.8991  -3.9173  -3.9338  -3.9486  -3.9614  -3.9724  -3.9813  -3.9881  -3.9929  -3.9954  -3.9958  -3.9939  -3.9897  -3.9830  -3.9739  -3.9621  -3.9476  -3.9302  -3.9097  -3.8859  -3.8587  -3.8280  -3.7938  -3.7560  -3.7148  -3.6704  -3.6229  -3.5726  -3.5199  -3.4651  -3.4086  -3.3505  -3.2912  -3.2310  -3.1701  -3.1086  -3.0467  -2.9845  -2.9221  -2.8597  -2.7972  -2.7348  -2.6727  -2.6107  -2.5490  -2.4877  -2.4267  -2.3660  -2.3057  -2.2457  -2.1859  -2.1263  -2.0668  -2.0074  -1.9478  -1.8881  -1.8281  -1.7678  -1.7069  -1.6455  -1.5833  -1.5205  -1.4568  -1.3923  -1.3270  -1.2610  -1.1945  -1.1277  -1.0609
3.570  -3.3785  -3.4144  -3.4496  -3.4842  -3.5182  -3.5515  -3.5842  -3.6161  -3.6473  -3.6777  -3.7073  -3.7360  -3.7637  -3.7905  -3.8161  -3.8406  -3.8639  -3.8858  -3.9064  -3.9255  -3.9430  -3.9589  -3.9731  -3.9856  -3.9963  -4.0052  -4.0123  -4.0175  -4.0209  -4.0224  -4.0220  -4.0199  -4.0158  -4.0099  -4.0020  -3.9921  -3.9801  -3.9658  -3.9492  -3.9299  -3.9080  -3.8832  -3.8555  -3.8247  -3.7909  -3.7542  -3.7146  -3.6724  -3.6278  -3.5811  -3.5324  -3.4821  -3.4304  -3.3774  -3.3234  -3.2685  -3.2127  -3.1562  -3.0991  -3.0415  -2.9835  -2.9251  -2.8665  -2.8078  -2.7490  -2.6903  -2.6315  -2.5729  -2.5144  -2.4559  -2.3975  -2.3391  -2.2806  -2.2220  -2.1631  -2.1038  -2.0441  -1.9837  -1.9226  -1.8606  -1.7977  -1.7336  -1.6683  -1.6018  -1.5341  -1.4652  -1.3953  -1.3247  -1.2537  -1.1827  -1.1122
3.560  -3.5253  -3.5583  -3.5907  -3.6225  -3.6535  -3.6838  -3.7133  -3.7419  -3.7697  -3.7965  -3.8223  -3.8469  -3.8704  -3.8927  -3.9137  -3.9332  -3.9514  -3.9680  -3.9830  -3.9965  -4.0083  -4.0185  -4.0269  -4.0338  -4.0389  -4.0424  -4.0444  -4.0447  -4.0436  -4.0410  -4.0368  -4.0312  -4.0241  -4.0155  -4.0052  -3.9933  -3.9795  -3.9639  -3.9462  -3.9263  -3.9041  -3.8796  -3.8525  -3.8230  -3.7911  -3.7569  -3.7204  -3.6819  -3.6414  -3.5993  -3.5556  -3.5105  -3.4642  -3.4166  -3.3679  -3.3181  -3.2674  -3.2157  -3.1631  -3.1098  -3.0558  -3.0013  -2.9462  -2.8907  -2.8349  -2.7789  -2.7226  -2.6661  -2.6094  -2.5525  -2.4952  -2.4375  -2.3794  -2.3207  -2.2612  -2.2009  -2.1395  -2.0770  -2.0131  -1.9478  -1.8809  -1.8122  -1.7419  -1.6700  -1.5967  -1.5221  -1.4468  -1.3711  -1.2956  -1.2209  -1.1476
3.550  -3.6619  -3.6919  -3.7212  -3.7497  -3.7773  -3.8040  -3.8297  -3.8544  -3.8780  -3.9004  -3.9215  -3.9413  -3.9598  -3.9768  -3.9924  -4.0064  -4.0189  -4.0299  -4.0393  -4.0471  -4.0534  -4.0582  -4.0616  -4.0635  -4.0641  -4.0634  -4.0615  -4.0584  -4.0540  -4.0485  -4.0419  -4.0341  -4.0251  -4.0149  -4.0033  -3.9904  -3.9760  -3.9600  -3.9425  -3.9232  -3.9020  -3.8791  -3.8542  -3.8275  -3.7988  -3.7684  -3.7362  -3.7023  -3.6668  -3.6299  -3.5915  -3.5518  -3.5108  -3.4684  -3.4248  -3.3799  -3.3339  -3.2866  -3.2382  -3.1888  -3.1384  -3.0872  -3.0352  -2.9825  -2.9292  -2.8752  -2.8207  -2.7656  -2.7099  -2.6535  -2.5963  -2.5382  -2.4791  -2.4188  -2.3572  -2.2940  -2.2291  -2.1624  -2.0936  -2.0227  -1.9497  -1.8746  -1.7976  -1.7191  -1.6394  -1.5589  -1.4784  -1.3983  -1.3195  -1.2425  -1.1680
3.540  -3.7866  -3.8130  -3.8386  -3.8632  -3.8867  -3.9090  -3.9302  -3.9501  -3.9687  -3.9859  -4.0017  -4.0161  -4.0290  -4.0404  -4.0504  -4.0590  -4.0661  -4.0717  -4.0761  -4.0791  -4.0808  -4.0814  -4.0808  -4.0792  -4.0765  -4.0729  -4.0684  -4.0629  -4.0566  -4.0494  -4.0413  -4.0323  -4.0224  -4.0116  -3.9998  -3.9870  -3.9732  -3.9583  -3.9422  -3.9248  -3.9062  -3.8863  -3.8649  -3.8421  -3.8178  -3.7920  -3.7646  -3.7358  -3.7056  -3.6738  -3.6406  -3.6060  -3.5700  -3.5325  -3.4935  -3.4531  -3.4113  -3.3680  -3.3233  -3.2774  -3.2302  -3.1818  -3.1322  -3.0816  -3.0300  -2.9773  -2.9236  -2.8688  -2.8128  -2.7556  -2.6969  -2.6367  -2.5748  -2.5109  -2.4449  -2.3765  -2.3057  -2.2323  -2.1564  -2.0780  -1.9973  -1.9147  -1.8305  -1.7453  -1.6597  -1.5744  -1.4900  -1.4074  -1.3271  -1.2500  -1.1765
3.530  -3.8966  -3.9188  -3.9398  -3.9596  -3.9782  -3.9955  -4.0114  -4.0259  -4.0390  -4.0508  -4.0611  -4.0701  -4.0777  -4.0840  -4.0890  -4.0927  -4.0953  -4.0967  -4.0971  -4.0965  -4.0950  -4.0926  -4.0893  -4.0853  -4.0806  -4.0751  -4.0690  -4.0623  -4.0549  -4.0470  -4.0384  -4.0293  -4.0197  -4.0095  -3.9987  -3.9874  -3.9755  -3.9630  -3.9497  -3.9357  -3.9208  -3.9049  -3.8878  -3.8696  -3.8501  -3.8291  -3.8067  -3.7829  -3.7575  -3.7306  -3.7022  -3.6723  -3.6407  -3.6076  -3.5729  -3.5365  -3.4984  -3.4586  -3.4172  -3.3741  -3.3294  -3.2831  -3.2352  -3.1858  -3.1347  -3.0821  -3.0278  -2.9717  -2.9138  -2.8537  -2.7915  -2.7268  -2.6595  -2.5894  -2.5163  -2.4403  -2.3613  -2.2794  -2.1949  -2.1082  -2.0196  -1.9297  -1.8392  -1.7486  -1.6588  -1.5706  -1.4847  -1.4019  -1.3228  -1.2480  -1.1778
3.520  -3.9885  -4.0057  -4.0215  -4.0360  -4.0492  -4.0611  -4.0716  -4.0809  -4.0888  -4.0955  -4.1009  -4.1052  -4.1084  -4.1105  -4.1116  -4.1117  -4.1110  -4.1094  -4.1071  -4.1041  -4.1004  -4.0961  -4.0913  -4.0859  -4.0800  -4.0737  -4.0670  -4.0600  -4.0527  -4.0451  -4.0372  -4.0293  -4.0211  -4.0129  -4.0045  -3.9960  -3.9873  -3.9783  -3.9689  -3.9590  -3.9484  -3.9370  -3.9245  -3.9109  -3.8960  -3.8797  -3.8619  -3.8425  -3.8216  -3.7991  -3.7750  -3.7493  -3.7218  -3.6926  -3.6616  -3.6287  -3.5939  -3.5570  -3.5181  -3.4771  -3.4339  -3.3886  -3.3411  -3.2914  -3.2394  -3.1851  -3.1282  -3.0686  -3.0062  -2.9407  -2.8721  -2.8001  -2.7246  -2.6457  -2.5635  -2.4781  -2.3897  -2.2989  -2.2060  -2.1116  -2.0162  -1.9207  -1.8256  -1.7320  -1.6405  -1.5520  -1.4673  -1.3870  -1.3116  -1.2415  -1.1768
3.510  -4.0598  -4.0716  -4.0822  -4.0915  -4.0997  -4.1066  -4.1123  -4.1170  -4.1206  -4.1231  -4.1247  -4.1254  -4.1253  -4.1244  -4.1228  -4.1205  -4.1176  -4.1142  -4.1102  -4.1058  -4.1009  -4.0957  -4.0902  -4.0844  -4.0784  -4.0723  -4.0661  -4.0600  -4.0539  -4.0479  -4.0421  -4.0366  -4.0312  -4.0261  -4.0212  -4.0165  -4.0117  -4.0069  -4.0017  -3.9961  -3.9899  -3.9828  -3.9746  -3.9653  -3.9546  -3.9424  -3.9288  -3.9135  -3.8966  -3.8781  -3.8578  -3.8359  -3.8120  -3.7862  -3.7583  -3.7282  -3.6958  -3.6609  -3.6234  -3.5833  -3.5403  -3.4945  -3.4456  -3.3937  -3.3384  -3.2798  -3.2175  -3.1514  -3.0815  -3.0076  -2.9297  -2.8479  -2.7623  -2.6734  -2.5813  -2.4866  -2.3895  -2.2907  -2.1908  -2.0904  -1.9903  -1.8913  -1.7944  -1.7004  -1.6102  -1.5245  -1.4438  -1.3686  -1.2991  -1.2354  -1.1774
3.500  -4.1104  -4.1175  -4.1234  -4.1283  -4.1322  -4.1351  -4.1370  -4.1382  -4.1385  -4.1382  -4.1371  -4.1354  -4.1332  -4.1304  -4.1271  -4.1234  -4.1194  -4.1150  -4.1103  -4.1054  -4.1003  -4.0952  -4.0900  -4.0849  -4.0800  -4.0753  -4.0709  -4.0669  -4.0633  -4.0602  -4.0576  -4.0555  -4.0538  -4.0526  -4.0517  -4.0511  -4.0504  -4.0497  -4.0486  -4.0470  -4.0448  -4.0416  -4.0373  -4.0318  -4.0249  -4.0165  -4.0066  -3.9950  -3.9818  -3.9668  -3.9500  -3.9312  -3.9103  -3.8871  -3.8614  -3.8331  -3.8019  -3.7677  -3.7301  -3.6890  -3.6443  -3.5956  -3.5429  -3.4858  -3.4242  -3.3579  -3.2870  -3.2113  -3.1310  -3.0463  -2.9576  -2.8653  -2.7696  -2.6711  -2.5701  -2.4672  -2.3629  -2.2579  -2.1529  -2.0488  -1.9466  -1.8472  -1.7515  -1.6603  -1.5743  -1.4940  -1.4197  -1.3515  -1.2895  -1.2334  -1.1830
3.490  -4.1430  -4.1461  -4.1484  -4.1498  -4.1504  -4.1504  -4.1497  -4.1484  -4.1466  -4.1443  -4.1415  -4.1383  -4.1347  -4.1308  -4.1266  -4.1223  -4.1178  -4.1132  -4.1086  -4.1041  -4.0998  -4.0957  -4.0919  -4.0885  -4.0857  -4.0834  -4.0817  -4.0807  -4.0804  -4.0808  -4.0818  -4.0835  -4.0856  -4.0882  -4.0911  -4.0941  -4.0971  -4.0999  -4.1024  -4.1042  -4.1054  -4.1056  -4.1047  -4.1025  -4.0989  -4.0939  -4.0871  -4.0787  -4.0683  -4.0561  -4.0417  -4.0250  -4.0058  -3.9840  -3.9591  -3.9310  -3.8994  -3.8639  -3.8241  -3.7799  -3.7307  -3.6763  -3.6165  -3.5510  -3.4798  -3.4030  -3.3209  -3.2338  -3.1422  -3.0467  -2.9476  -2.8454  -2.7406  -2.6336  -2.5250  -2.4154  -2.3055  -2.1964  -2.0890  -1.9843  -1.8833  -1.7868  -1.6957  -1.6104  -1.5315  -1.4590  -1.3929  -1.3333  -1.2797  -1.2318  -1.1891
3.480  -4.1616  -4.1618  -4.1614  -4.1604  -4.1589  -4.1569  -4.1545  -4.1517  -4.1485  -4.1451  -4.1413  -4.1374  -4.1333  -4.1292  -4.1250  -4.1209  -4.1170  -4.1133  -4.1099  -4.1069  -4.1044  -4.1025  -4.1012  -4.1006  -4.1008  -4.1018  -4.1036  -4.1062  -4.1095  -4.1136  -4.1183  -4.1235  -4.1292  -4.1352  -4.1414  -4.1477  -4.1539  -4.1598  -4.1654  -4.1703  -4.1745  -4.1778  -4.1798  -4.1806  -4.1798  -4.1774  -4.1731  -4.1669  -4.1585  -4.1478  -4.1347  -4.1188  -4.0999  -4.0778  -4.0520  -4.0222  -3.9879  -3.9486  -3.9038  -3.8530  -3.7959  -3.7322  -3.6617  -3.5847  -3.5014  -3.4126  -3.3186  -3.2203  -3.1181  -3.0125  -2.9041  -2.7933  -2.6806  -2.5666  -2.4522  -2.3383  -2.2260  -2.1162  -2.0101  -1.9085  -1.8124  -1.7223  -1.6388  -1.5619  -1.4920  -1.4287  -1.3720  -1.3213  -1.2763  -1.2364  -1.2010
3.470  -4.1703  -4.1686  -4.1665  -4.1640  -4.1611  -4.1580  -4.1547  -4.1511  -4.1474  -4.1436  -4.1398  -4.1361  -4.1325  -4.1291  -4.1260  -4.1232  -4.1209  -4.1192  -4.1181  -4.1176  -4.1179  -4.1191  -4.1210  -4.1239  -4.1276  -4.1321  -4.1375  -4.1436  -4.1504  -4.1578  -4.1657  -4.1741  -4.1828  -4.1918  -4.2010  -4.2102  -4.2192  -4.2280  -4.2363  -4.2440  -4.2508  -4.2565  -4.2609  -4.2638  -4.2650  -4.2642  -4.2613  -4.2562  -4.2484  -4.2380  -4.2245  -4.2078  -4.1875  -4.1630  -4.1340  -4.0999  -4.0599  -4.0134  -3.9599  -3.8989  -3.8302  -3.7540  -3.6707  -3.5808  -3.4852  -3.3847  -3.2798  -3.1713  -3.0596  -2.9452  -2.8287  -2.7106  -2.5919  -2.4735  -2.3565  -2.2419  -2.1309  -2.0245  -1.9236  -1.8289  -1.7408  -1.6598  -1.5859  -1.5190  -1.4591  -1.4057  -1.3584  -1.3167  -1.2798  -1.2474  -1.2188
3.460  -4.1727  -4.1699  -4.1668  -4.1636  -4.1602  -4.1568  -4.1533  -4.1498  -4.1465  -4.1434  -4.1405  -4.1380  -4.1359  -4.1343  -4.1332  -4.1328  -4.1331  -4.1342  -4.1362  -4.1390  -4.1427  -4.1473  -4.1528  -4.1591  -4.1663  -4.1741  -4.1827  -4.1918  -4.2016  -4.2119  -4.2226  -4.2338  -4.2453  -4.2570  -4.2688  -4.2806  -4.2921  -4.3033  -4.3138  -4.3235  -4.3321  -4.3394  -4.3452  -4.3492  -4.3511  -4.3507  -4.3479  -4.3422  -4.3336  -4.3217  -4.3061  -4.2866  -4.2624  -4.2331  -4.1978  -4.1559  -4.1066  -4.0491  -3.9832  -3.9089  -3.8265  -3.7367  -3.6403  -3.5383  -3.4314  -3.3204  -3.2058  -3.0881  -2.9681  -2.8463  -2.7236  -2.6010  -2.4795  -2.3605  -2.2449  -2.1340  -2.0285  -1.9293  -1.8369  -1.7518  -1.6740  -1.6037  -1.5406  -1.4845  -1.4349  -1.3913  -1.3530  -1.3195  -1.2901  -1.2644  -1.2417
3.450  -4.1720  -4.1688  -4.1656  -4.1625  -4.1594  -4.1566  -4.1539  -4.1516  -4.1497  -4.1482  -4.1472  -4.1468  -4.1471  -4.1482  -4.1500  -4.1527  -4.1563  -4.1608  -4.1662  -4.1724  -4.1795  -4.1874  -4.1960  -4.2054  -4.2154  -4.2261  -4.2374  -4.2493  -4.2617  -4.2747  -4.2880  -4.3017  -4.3157  -4.3297  -4.3437  -4.3574  -4.3708  -4.3835  -4.3953  -4.4060  -4.4154  -4.4231  -4.4289  -4.4326  -4.4339  -4.4324  -4.4279  -4.4202  -4.4088  -4.3934  -4.3735  -4.3486  -4.3178  -4.2803  -4.2352  -4.1817  -4.1193  -4.0478  -3.9673  -3.8785  -3.7823  -3.6796  -3.5714  -3.4584  -3.3414  -3.2210  -3.0978  -2.9725  -2.8462  -2.7197  -2.5943  -2.4711  -2.3513  -2.2361  -2.1263  -2.0229  -1.9264  -1.8373  -1.7558  -1.6821  -1.6160  -1.5572  -1.5053  -1.4599  -1.4202  -1.3857  -1.3557  -1.3295  -1.3066  -1.2866  -1.2690
3.440  -4.1714  -4.1688  -4.1664  -4.1643  -4.1625  -4.1612  -4.1603  -4.1600  -4.1603  -4.1613  -4.1630  -4.1656  -4.1690  -4.1733  -4.1785  -4.1845  -4.1915  -4.1992  -4.2078  -4.2170  -4.2270  -4.2377  -4.2491  -4.2611  -4.2738  -4.2871  -4.3009  -4.3153  -4.3302  -4.3455  -4.3610  -4.3768  -4.3926  -4.4082  -4.4235  -4.4384  -4.4525  -4.4656  -4.4776  -4.4880  -4.4968  -4.5035  -4.5079  -4.5097  -4.5085  -4.5042  -4.4963  -4.4845  -4.4683  -4.4472  -4.4204  -4.3870  -4.3461  -4.2967  -4.2381  -4.1699  -4.0920  -4.0051  -3.9100  -3.8075  -3.6987  -3.5845  -3.4657  -3.3429  -3.2169  -3.0886  -2.9590  -2.8290  -2.7000  -2.5730  -2.4494  -2.3303  -2.2166  -2.1093  -2.0090  -1.9161  -1.8311  -1.7541  -1.6850  -1.6237  -1.5697  -1.5225  -1.4815  -1.4460  -1.4153  -1.3888  -1.3659  -1.3460  -1.3286  -1.3134  -1.2999
3.430  -4.1746  -4.1734  -4.1727  -4.1724  -4.1728  -4.1737  -4.1754  -4.1779  -4.1812  -4.1853  -4.1903  -4.1961  -4.2028  -4.2104  -4.2187  -4.2279  -4.2377  -4.2483  -4.2595  -4.2714  -4.2840  -4.2972  -4.3111  -4.3256  -4.3407  -4.3564  -4.3726  -4.3891  -4.4059  -4.4230  -4.4401  -4.4570  -4.4737  -4.4899  -4.5055  -4.5202  -4.5338  -4.5460  -4.5566  -4.5653  -4.5719  -4.5759  -4.5772  -4.5754  -4.5703  -4.5613  -4.5482  -4.5304  -4.5070  -4.4773  -4.4403  -4.3948  -4.3400  -4.2754  -4.2007  -4.1163  -4.0230  -3.9215  -3.8129  -3.6981  -3.5780  -3.4534  -3.3252  -3.1943  -3.0617  -2.9287  -2.7964  -2.6662  -2.5392  -2.4166  -2.2994  -2.1885  -2.0847  -1.9885  -1.9002  -1.8201  -1.7482  -1.6844  -1.6283  -1.5794  -1.5371  -1.5008  -1.4696  -1.4428  -1.4199  -1.4001  -1.3831  -1.3682  -1.3553  -1.3438  -1.3337
3.420  -4.1849  -4.1859  -4.1875  -4.1899  -4.1931  -4.1970  -4.2019  -4.2075  -4.2140  -4.2214  -4.2295  -4.2385  -4.2481  -4.2585  -4.2695  -4.2813  -4.2937  -4.3067  -4.3204  -4.3348  -4.3499  -4.3655  -4.3818  -4.3985  -4.4157  -4.4333  -4.4512  -4.4691  -4.4871  -4.5050  -4.5225  -4.5396  -4.5560  -4.5715  -4.5859  -4.5991  -4.6106  -4.6204  -4.6281  -4.6335  -4.6362  -4.6361  -4.6328  -4.6260  -4.6152  -4.6000  -4.5796  -4.5530  -4.5193  -4.4774  -4.4263  -4.3653  -4.2941  -4.2127  -4.1218  -4.0220  -3.9143  -3.7996  -3.6788  -3.5529  -3.4229  -3.2898  -3.1548  -3.0192  -2.8841  -2.7510  -2.6211  -2.4955  -2.3752  -2.2613  -2.1544  -2.0551  -1.9638  -1.8809  -1.8064  -1.7403  -1.6822  -1.6318  -1.5883  -1.5511  -1.5194  -1.4925  -1.4695  -1.4500  -1.4332  -1.4188  -1.4064  -1.3955  -1.3860  -1.3775  -1.3699
3.410  -4.2050  -4.2089  -4.2136  -4.2191  -4.2254  -4.2326  -4.2406  -4.2493  -4.2588  -4.2690  -4.2798  -4.2914  -4.3036  -4.3164  -4.3300  -4.3442  -4.3590  -4.3745  -4.3907  -4.4074  -4.4246  -4.4424  -4.4605  -4.4789  -4.4975  -4.5161  -4.5347  -4.5531  -4.5711  -4.5885  -4.6053  -4.6211  -4.6358  -4.6491  -4.6610  -4.6710  -4.6791  -4.6849  -4.6882  -4.6889  -4.6867  -4.6813  -4.6722  -4.6589  -4.6407  -4.6167  -4.5859  -4.5471  -4.4994  -4.4419  -4.3741  -4.2961  -4.2080  -4.1106  -4.0045  -3.8905  -3.7698  -3.6431  -3.5118  -3.3770  -3.2400  -3.1021  -2.9647  -2.8291  -2.6967  -2.5685  -2.4456  -2.3290  -2.2194  -2.1174  -2.0234  -1.9379  -1.8611  -1.7929  -1.7330  -1.6811  -1.6366  -1.5987  -1.5665  -1.5394  -1.5165  -1.4971  -1.4807  -1.4667  -1.4547  -1.4444  -1.4354  -1.4275  -1.4205  -1.4142  -1.4084
3.400  -4.2376  -4.2446  -4.2525  -4.2611  -4.2704  -4.2805  -4.2912  -4.3026  -4.3147  -4.3274  -4.3407  -4.3547  -4.3694  -4.3848  -4.4008  -4.4174  -4.4346  -4.4523  -4.4705  -4.4891  -4.5080  -4.5271  -4.5463  -4.5655  -4.5844  -4.6031  -4.6213  -4.6388  -4.6555  -4.6711  -4.6856  -4.6987  -4.7102  -4.7199  -4.7277  -4.7334  -4.7368  -4.7378  -4.7361  -4.7315  -4.7235  -4.7116  -4.6950  -4.6730  -4.6444  -4.6083  -4.5635  -4.5092  -4.4449  -4.3704  -4.2857  -4.1912  -4.0873  -3.9748  -3.8546  -3.7277  -3.5955  -3.4593  -3.3206  -3.1808  -3.0413  -2.9036  -2.7689  -2.6384  -2.5132  -2.3942  -2.2822  -2.1777  -2.0813  -1.9935  -1.9145  -1.8444  -1.7830  -1.7298  -1.6843  -1.6457  -1.6132  -1.5859  -1.5630  -1.5438  -1.5277  -1.5142  -1.5026  -1.4928  -1.4843  -1.4769  -1.4704  -1.4646  -1.4594  -1.4547  -1.4503
3.390  -4.2785  -4.2884  -4.2990  -4.3102  -4.3221  -4.3346  -4.3477  -4.3615  -4.3760  -4.3911  -4.4068  -4.4232  -4.4402  -4.4578  -4.4758  -4.4943  -4.5133  -4.5324  -4.5518  -4.5713  -4.5908  -4.6100  -4.6290  -4.6475  -4.6653  -4.6824  -4.6984  -4.7133  -4.7269  -4.7390  -4.7495  -4.7582  -4.7649  -4.7696  -4.7722  -4.7726  -4.7704  -4.7656  -4.7576  -4.7460  -4.7299  -4.7086  -4.6810  -4.6461  -4.6027  -4.5499  -4.4871  -4.4139  -4.3304  -4.2367  -4.1332  -4.0207  -3.9001  -3.7726  -3.6396  -3.5025  -3.3627  -3.2219  -3.0814  -2.9426  -2.8069  -2.6754  -2.5492  -2.4291  -2.3158  -2.2101  -2.1125  -2.0234  -1.9433  -1.8722  -1.8100  -1.7563  -1.7104  -1.6717  -1.6392  -1.6121  -1.5896  -1.5708  -1.5552  -1.5421  -1.5312  -1.5219  -1.5139  -1.5071  -1.5012  -1.4959  -1.4913  -1.4871  -1.4832  -1.4797  -1.4763
3.380  -4.3297  -4.3420  -4.3550  -4.3686  -4.3828  -4.3977  -4.4132  -4.4294  -4.4462  -4.4636  -4.4815  -4.4999  -4.5187  -4.5379  -4.5574  -4.5770  -4.5967  -4.6163  -4.6357  -4.6549  -4.6735  -4.6915  -4.7087  -4.7249  -4.7400  -4.7538  -4.7661  -4.7768  -4.7858  -4.7931  -4.7984  -4.8019  -4.8033  -4.8027  -4.7998  -4.7944  -4.7860  -4.7741  -4.7581  -4.7370  -4.7098  -4.6754  -4.6327  -4.5808  -4.5188  -4.4465  -4.3637  -4.2705  -4.1673  -4.0549  -3.9341  -3.8062  -3.6726  -3.5349  -3.3946  -3.2532  -3.1121  -2.9727  -2.8364  -2.7042  -2.5773  -2.4565  -2.3425  -2.2360  -2.1376  -2.0478  -1.9670  -1.8954  -1.8328  -1.7789  -1.7331  -1.6945  -1.6623  -1.6356  -1.6135  -1.5952  -1.5801  -1.5676  -1.5571  -1.5483  -1.5409  -1.5346  -1.5291  -1.5244  -1.5202  -1.5165  -1.5131  -1.5100  -1.5071  -1.5043  -1.5017
3.370  -4.3900  -4.4047  -4.4201  -4.4361  -4.4527  -4.4699  -4.4877  -4.5060  -4.5247  -4.5439  -4.5633  -4.5830  -4.6028  -4.6226  -4.6424  -4.6619  -4.6811  -4.6998  -4.7178  -4.7350  -4.7512  -4.7662  -4.7799  -4.7922  -4.8029  -4.8120  -4.8193  -4.8249  -4.8287  -4.8307  -4.8309  -4.8292  -4.8253  -4.8191  -4.8101  -4.7977  -4.7813  -4.7600  -4.7327  -4.6984  -4.6560  -4.6043  -4.5427  -4.4707  -4.3882  -4.2952  -4.1922  -4.0797  -3.9587  -3.8306  -3.6968  -3.5588  -3.4182  -3.2765  -3.1350  -2.9953  -2.8586  -2.7262  -2.5989  -2.4776  -2.3632  -2.2563  -2.1575  -2.0674  -1.9865  -1.9148  -1.8524  -1.7987  -1.7533  -1.7152  -1.6835  -1.6574  -1.6359  -1.6182  -1.6036  -1.5917  -1.5817  -1.5735  -1.5665  -1.5607  -1.5556  -1.5513  -1.5475  -1.5442  -1.5412  -1.5385  -1.5360  -1.5336  -1.5314  -1.5292  -1.5270
3.360  -4.4599  -4.4770  -4.4947  -4.5128  -4.5315  -4.5506  -4.5700  -4.5897  -4.6096  -4.6295  -4.6495  -4.6693  -4.6888  -4.7080  -4.7266  -4.7445  -4.7616  -4.7776  -4.7924  -4.8059  -4.8179  -4.8284  -4.8373  -4.8445  -4.8500  -4.8538  -4.8560  -4.8566  -4.8555  -4.8526  -4.8478  -4.8407  -4.8309  -4.8179  -4.8010  -4.7793  -4.7517  -4.7171  -4.6744  -4.6225  -4.5608  -4.4887  -4.4061  -4.3131  -4.2100  -4.0974  -3.9763  -3.8480  -3.7141  -3.5760  -3.4353  -3.2934  -3.1518  -3.0119  -2.8750  -2.7423  -2.6149  -2.4935  -2.3789  -2.2719  -2.1731  -2.0832  -2.0026  -1.9314  -1.8696  -1.8166  -1.7720  -1.7347  -1.7039  -1.6785  -1.6578  -1.6408  -1.6269  -1.6155  -1.6062  -1.5984  -1.5919  -1.5865  -1.5819  -1.5779  -1.5745  -1.5715  -1.5689  -1.5665  -1.5643  -1.5622  -1.5603  -1.5584  -1.5566  -1.5548  -1.5531
3.350  -4.5392  -4.5582  -4.5777  -4.5974  -4.6173  -4.6374  -4.6574  -4.6775  -4.6973  -4.7168  -4.7359  -4.7543  -4.7720  -4.7888  -4.8044  -4.8189  -4.8320  -4.8437  -4.8537  -4.8622  -4.8691  -4.8743  -4.8780  -4.8801  -4.8808  -4.8800  -4.8777  -4.8738  -4.8681  -4.8602  -4.8497  -4.8360  -4.8185  -4.7961  -4.7679  -4.7328  -4.6895  -4.6370  -4.5748  -4.5023  -4.4194  -4.3261  -4.2227  -4.1099  -3.9887  -3.8603  -3.7263  -3.5881  -3.4474  -3.3054  -3.1636  -3.0236  -2.8866  -2.7537  -2.6262  -2.5048  -2.3903  -2.2836  -2.1853  -2.0960  -2.0162  -1.9461  -1.8854  -1.8337  -1.7903  -1.7542  -1.7245  -1.7002  -1.6804  -1.6642  -1.6511  -1.6404  -1.6315  -1.6243  -1.6183  -1.6132  -1.6090  -1.6054  -1.6023  -1.5996  -1.5972  -1.5951  -1.5932  -1.5914  -1.5897  -1.5881  -1.5866  -1.5851  -1.5836  -1.5821  -1.5806
3.340  -4.6263  -4.6465  -4.6667  -4.6868  -4.7069  -4.7266  -4.7460  -4.7649  -4.7830  -4.8004  -4.8167  -4.8319  -4.8459  -4.8585  -4.8696  -4.8791  -4.8871  -4.8935  -4.8983  -4.9017  -4.9036  -4.9043  -4.9036  -4.9017  -4.8983  -4.8935  -4.8870  -4.8784  -4.8672  -4.8529  -4.8346  -4.8116  -4.7826  -4.7466  -4.7025  -4.6492  -4.5862  -4.5130  -4.4295  -4.3358  -4.2320  -4.1189  -3.9975  -3.8690  -3.7349  -3.5966  -3.4557  -3.3135  -3.1716  -3.0313  -2.8941  -2.7612  -2.6337  -2.5125  -2.3985  -2.2924  -2.1950  -2.1069  -2.0286  -1.9600  -1.9010  -1.8511  -1.8093  -1.7748  -1.7465  -1.7235  -1.7048  -1.6896  -1.6773  -1.6672  -1.6590  -1.6523  -1.6467  -1.6421  -1.6382  -1.6349  -1.6321  -1.6296  -1.6275  -1.6256  -1.6239  -1.6224  -1.6209  -1.6196  -1.6182  -1.6170  -1.6157  -1.6144  -1.6132  -1.6119  -1.6105
3.330  -4.7180  -4.7380  -4.7576  -4.7767  -4.7952  -4.8130  -4.8298  -4.8456  -4.8602  -4.8735  -4.8855  -4.8959  -4.9048  -4.9121  -4.9179  -4.9223  -4.9252  -4.9269  -4.9274  -4.9268  -4.9251  -4.9222  -4.9181  -4.9126  -4.9055  -4.8963  -4.8845  -4.8694  -4.8504  -4.8266  -4.7967  -4.7597  -4.7145  -4.6603  -4.5963  -4.5223  -4.4381  -4.3438  -4.2397  -4.1263  -4.0046  -3.8758  -3.7414  -3.6029  -3.4616  -3.3190  -3.1766  -3.0361  -2.8987  -2.7658  -2.6385  -2.5178  -2.4045  -2.2996  -2.2036  -2.1174  -2.0410  -1.9747  -1.9180  -1.8702  -1.8306  -1.7980  -1.7714  -1.7498  -1.7323  -1.7182  -1.7068  -1.6975  -1.6899  -1.6837  -1.6786  -1.6743  -1.6708  -1.6678  -1.6652  -1.6630  -1.6611  -1.6594  -1.6579  -1.6565  -1.6553  -1.6541  -1.6530  -1.6519  -1.6508  -1.6497  -1.6487  -1.6476  -1.6464  -1.6453  -1.6441
3.320  -4.8092  -4.8272  -4.8444  -4.8606  -4.8757  -4.8895  -4.9021  -4.9132  -4.9228  -4.9309  -4.9375  -4.9427  -4.9465  -4.9491  -4.9505  -4.9508  -4.9502  -4.9486  -4.9461  -4.9426  -4.9380  -4.9320  -4.9244  -4.9147  -4.9023  -4.8867  -4.8669  -4.8422  -4.8114  -4.7734  -4.7272  -4.6718  -4.6068  -4.5320  -4.4472  -4.3524  -4.2478  -4.1340  -4.0119  -3.8827  -3.7477  -3.6085  -3.4665  -3.3232  -3.1803  -3.0393  -2.9018  -2.7690  -2.6422  -2.5223  -2.4102  -2.3069  -2.2131  -2.1293  -2.0557  -1.9921  -1.9382  -1.8932  -1.8560  -1.8256  -1.8009  -1.7809  -1.7649  -1.7519  -1.7414  -1.7329  -1.7259  -1.7202  -1.7156  -1.7117  -1.7085  -1.7057  -1.7034  -1.7014  -1.6997  -1.6982  -1.6969  -1.6957  -1.6945  -1.6935  -1.6925  -1.6916  -1.6907  -1.6898  -1.6889  -1.6879  -1.6870  -1.6860  -1.6850  -1.6839  -1.6828
3.310  -4.8930  -4.9072  -4.9202  -4.9318  -4.9420  -4.9507  -4.9580  -4.9638  -4.9684  -4.9716  -4.9738  -4.9749  -4.9752  -4.9746  -4.9732  -4.9710  -4.9681  -4.9643  -4.9594  -4.9531  -4.9451  -4.9350  -4.9222  -4.9061  -4.8858  -4.8603  -4.8287  -4.7898  -4.7425  -4.6862  -4.6204  -4.5449  -4.4596  -4.3644  -4.2594  -4.1451  -4.0223  -3.8923  -3.7564  -3.6161  -3.4731  -3.3288  -3.1852  -3.0437  -2.9061  -2.7737  -2.6476  -2.5290  -2.4188  -2.3178  -2.2267  -2.1460  -2.0757  -2.0156  -1.9650  -1.9230  -1.8886  -1.8606  -1.8380  -1.8198  -1.8052  -1.7934  -1.7839  -1.7761  -1.7699  -1.7647  -1.7605  -1.7570  -1.7540  -1.7516  -1.7495  -1.7477  -1.7461  -1.7448  -1.7436  -1.7425  -1.7415  -1.7406  -1.7397  -1.7389  -1.7381  -1.7373  -1.7365  -1.7357  -1.7349  -1.7341  -1.7332  -1.7323  -1.7313  -1.7303  -1.7292
3.300  -4.9640  -4.9732  -4.9810  -4.9874  -4.9925  -4.9964  -4.9992  -5.0011  -5.0021  -5.0023  -5.0018  -5.0007  -4.9990  -4.9967  -4.9936  -4.9897  -4.9847  -4.9784  -4.9704  -4.9601  -4.9472  -4.9308  -4.9102  -4.8843  -4.8521  -4.8125  -4.7646  -4.7078  -4.6416  -4.5660  -4.4805  -4.3851  -4.2798  -4.1649  -4.0412  -3.9100  -3.7728  -3.6313  -3.4870  -3.3418  -3.1975  -3.0558  -2.9184  -2.7866  -2.6617  -2.5449  -2.4370  -2.3389  -2.2513  -2.1743  -2.1079  -2.0517  -2.0048  -1.9662  -1.9348  -1.9094  -1.8890  -1.8726  -1.8594  -1.8488  -1.8402  -1.8333  -1.8276  -1.8230  -1.8191  -1.8160  -1.8133  -1.8111  -1.8092  -1.8075  -1.8061  -1.8049  -1.8038  -1.8028  -1.8019  -1.8011  -1.8003  -1.7995  -1.7988  -1.7981  -1.7973  -1.7966  -1.7959  -1.7951  -1.7943  -1.7934  -1.7925  -1.7915  -1.7905  -1.7894  -1.7882
3.290  -5.0085  -5.0126  -5.0156  -5.0177  -5.0190  -5.0195  -5.0194  -5.0187  -5.0175  -5.0157  -5.0135  -5.0106  -5.0071  -5.0027  -4.9972  -4.9902  -4.9813  -4.9701  -4.9559  -4.9380  -4.9153  -4.8869  -4.8517  -4.8087  -4.7570  -4.6963  -4.6263  -4.5466  -4.4571  -4.3577  -4.2483  -4.1297  -4.0027  -3.8687  -3.7292  -3.5859  -3.4405  -3.2949  -3.1509  -3.0102  -2.8746  -2.7453  -2.6235  -2.5105  -2.4070  -2.3138  -2.2313  -2.1597  -2.0986  -2.0474  -2.0051  -1.9706  -1.9427  -1.9203  -1.9023  -1.8879  -1.8763  -1.8670  -1.8595  -1.8534  -1.8484  -1.8444  -1.8410  -1.8382  -1.8358  -1.8339  -1.8322  -1.8308  -1.8295  -1.8284  -1.8275  -1.8266  -1.8258  -1.8251  -1.8244  -1.8238  -1.8232  -1.8226  -1.8220  -1.8214  -1.8208  -1.8201  -1.8195  -1.8188  -1.8181  -1.8173  -1.8165  -1.8156  -1.8146  -1.8136  -1.8125
3.280  -5.0354  -5.0362  -5.0363  -5.0359  -5.0351  -5.0337  -5.0320  -5.0298  -5.0272  -5.0240  -5.0201  -5.0153  -5.0093  -5.0017  -4.9919  -4.9796  -4.9638  -4.9439  -4.9188  -4.8874  -4.8486  -4.8016  -4.7458  -4.6808  -4.6063  -4.5221  -4.4280  -4.3239  -4.2100  -4.0871  -3.9563  -3.8192  -3.6773  -3.5323  -3.3860  -3.2404  -3.0972  -2.9584  -2.8253  -2.6994  -2.5818  -2.4736  -2.3755  -2.2881  -2.2117  -2.1462  -2.0910  -2.0453  -2.0079  -1.9776  -1.9533  -1.9338  -1.9182  -1.9058  -1.8958  -1.8877  -1.8812  -1.8759  -1.8716  -1.8681  -1.8651  -1.8627  -1.8606  -1.8589  -1.8574  -1.8561  -1.8550  -1.8541  -1.8533  -1.8525  -1.8518  -1.8512  -1.8506  -1.8501  -1.8496  -1.8491  -1.8486  -1.8481  -1.8476  -1.8471  -1.8465  -1.8460  -1.8454  -1.8448  -1.8441  -1.8434  -1.8426  -1.8418  -1.8409  -1.8399  -1.8389
3.270  -5.0520  -5.0510  -5.0497  -5.0480  -5.0459  -5.0435  -5.0407  -5.0373  -5.0332  -5.0281  -5.0215  -5.0132  -5.0024  -4.9886  -4.9710  -4.9486  -4.9205  -4.8855  -4.8426  -4.7911  -4.7306  -4.6608  -4.5813  -4.4919  -4.3924  -4.2829  -4.1639  -4.0363  -3.9016  -3.7612  -3.6170  -3.4706  -3.3239  -3.1789  -3.0375  -2.9014  -2.7720  -2.6506  -2.5383  -2.4360  -2.3443  -2.2637  -2.1943  -2.1355  -2.0866  -2.0466  -2.0142  -1.9882  -1.9673  -1.9507  -1.9375  -1.9269  -1.9184  -1.9115  -1.9059  -1.9014  -1.8977  -1.8946  -1.8920  -1.8899  -1.8881  -1.8866  -1.8853  -1.8842  -1.8833  -1.8824  -1.8817  -1.8810  -1.8804  -1.8799  -1.8794  -1.8790  -1.8785  -1.8781  -1.8777  -1.8773  -1.8769  -1.8765  -1.8760  -1.8756  -1.8751  -1.8746  -1.8741  -1.8735  -1.8729  -1.8722  -1.8715  -1.8707  -1.8699  -1.8689  -1.8679
3.260  -5.0638  -5.0620  -5.0599  -5.0575  -5.0547  -5.0512  -5.0470  -5.0415  -5.0343  -5.0250  -5.0129  -4.9973  -4.9773  -4.9520  -4.9202  -4.8810  -4.8333  -4.7768  -4.7110  -4.6357  -4.5505  -4.4551  -4.3494  -4.2338  -4.1092  -3.9768  -3.8381  -3.6947  -3.5485  -3.4013  -3.2550  -3.1117  -2.9731  -2.8408  -2.7163  -2.6006  -2.4948  -2.3995  -2.3154  -2.2425  -2.1807  -2.1291  -2.0868  -2.0526  -2.0251  -2.0032  -1.9857  -1.9718  -1.9607  -1.9518  -1.9447  -1.9389  -1.9342  -1.9303  -1.9272  -1.9245  -1.9224  -1.9205  -1.9190  -1.9177  -1.9165  -1.9156  -1.9147  -1.9140  -1.9134  -1.9128  -1.9123  -1.9118  -1.9114  -1.9110  -1.9106  -1.9103  -1.9099  -1.9096  -1.9093  -1.9089  -1.9086  -1.9082  -1.9078  -1.9074  -1.9070  -1.9065  -1.9060  -1.9055  -1.9049  -1.9043  -1.9036  -1.9029  -1.9021  -1.9012  -1.9002
3.250  -5.0746  -5.0725  -5.0698  -5.0664  -5.0619  -5.0559  -5.0479  -5.0373  -5.0235  -5.0057  -4.9828  -4.9539  -4.9177  -4.8735  -4.8204  -4.7581  -4.6863  -4.6046  -4.5127  -4.4104  -4.2979  -4.1759  -4.0455  -3.9084  -3.7660  -3.6202  -3.4727  -3.3256  -3.1809  -3.0405  -2.9060  -2.7790  -2.6606  -2.5519  -2.4537  -2.3666  -2.2910  -2.2267  -2.1730  -2.1289  -2.0933  -2.0647  -2.0419  -2.0238  -2.0094  -1.9980  -1.9888  -1.9815  -1.9756  -1.9707  -1.9668  -1.9636  -1.9609  -1.9587  -1.9568  -1.9553  -1.9539  -1.9528  -1.9519  -1.9510  -1.9503  -1.9497  -1.9491  -1.9486  -1.9482  -1.9478  -1.9474  -1.9471  -1.9468  -1.9465  -1.9462  -1.9459  -1.9456  -1.9453  -1.9451  -1.9448  -1.9444  -1.9441  -1.9438  -1.9434  -1.9430  -1.9426  -1.9421  -1.9416  -1.9411  -1.9405  -1.9398  -1.9391  -1.9383  -1.9374  -1.9364
3.240  -5.0870  -5.0836  -5.0787  -5.0719  -5.0628  -5.0506  -5.0346  -5.0139  -4.9874  -4.9539  -4.9125  -4.8623  -4.8030  -4.7341  -4.6553  -4.5663  -4.4668  -4.3569  -4.2372  -4.1087  -3.9729  -3.8316  -3.6863  -3.5389  -3.3914  -3.2458  -3.1040  -2.9679  -2.8390  -2.7186  -2.6076  -2.5072  -2.4179  -2.3402  -2.2740  -2.2188  -2.1735  -2.1369  -2.1077  -2.0844  -2.0659  -2.0513  -2.0397  -2.0304  -2.0230  -2.0170  -2.0121  -2.0082  -2.0049  -2.0023  -2.0000  -1.9982  -1.9966  -1.9953  -1.9942  -1.9932  -1.9924  -1.9917  -1.9911  -1.9905  -1.9900  -1.9896  -1.9892  -1.9889  -1.9886  -1.9883  -1.9880  -1.9878  -1.9875  -1.9873  -1.9871  -1.9869  -1.9866  -1.9864  -1.9861  -1.9859  -1.9856  -1.9853  -1.9850  -1.9846  -1.9842  -1.9838  -1.9834  -1.9829  -1.9824  -1.9818  -1.9812  -1.9805  -1.9797  -1.9787  -1.9777
3.230  -5.0979  -5.0901  -5.0794  -5.0650  -5.0462  -5.0217  -4.9904  -4.9514  -4.9036  -4.8467  -4.7802  -4.7038  -4.6171  -4.5199  -4.4121  -4.2944  -4.1676  -4.0331  -3.8927  -3.7481  -3.6010  -3.4534  -3.3074  -3.1649  -3.0277  -2.8976  -2.7757  -2.6632  -2.5612  -2.4704  -2.3913  -2.3240  -2.2680  -2.2221  -2.1851  -2.1556  -2.1322  -2.1137  -2.0991  -2.0875  -2.0782  -2.0709  -2.0649  -2.0601  -2.0562  -2.0530  -2.0504  -2.0482  -2.0463  -2.0448  -2.0435  -2.0424  -2.0414  -2.0406  -2.0399  -2.0393  -2.0388  -2.0383  -2.0379  -2.0376  -2.0372  -2.0370  -2.0367  -2.0365  -2.0362  -2.0360  -2.0358  -2.0356  -2.0355  -2.0353  -2.0351  -2.0349  -2.0347  -2.0345  -2.0342  -2.0340  -2.0337  -2.0334  -2.0331  -2.0328  -2.0324  -2.0320  -2.0316  -2.0311  -2.0306  -2.0300  -2.0293  -2.0286  -2.0277  -2.0268  -2.0257
3.220  -5.0981  -5.0808  -5.0579  -5.0284  -4.9912  -4.9454  -4.8903  -4.8257  -4.7512  -4.6664  -4.5712  -4.4653  -4.3493  -4.2241  -4.0910  -3.9516  -3.8078  -3.6613  -3.5140  -3.3681  -3.2254  -3.0879  -2.9571  -2.8345  -2.7211  -2.6182  -2.5266  -2.4470  -2.3794  -2.3232  -2.2774  -2.2407  -2.2114  -2.1883  -2.1701  -2.1558  -2.1444  -2.1354  -2.1282  -2.1224  -2.1178  -2.1140  -2.1109  -2.1083  -2.1062  -2.1044  -2.1029  -2.1016  -2.1006  -2.0996  -2.0989  -2.0982  -2.0976  -2.0971  -2.0967  -2.0963  -2.0959  -2.0956  -2.0954  -2.0951  -2.0949  -2.0947  -2.0945  -2.0944  -2.0942  -2.0941  -2.0939  -2.0937  -2.0936  -2.0934  -2.0933  -2.0931  -2.0929  -2.0927  -2.0925  -2.0922  -2.0920  -2.0917  -2.0914  -2.0910  -2.0907  -2.0903  -2.0898  -2.0893  -2.0887  -2.0880  -2.0873  -2.0864  -2.0854  -2.0843  -2.0830
3.210  -5.0693  -5.0335  -4.9891  -4.9357  -4.8727  -4.7998  -4.7168  -4.6233  -4.5193  -4.4052  -4.2816  -4.1500  -4.0120  -3.8693  -3.7239  -3.5778  -3.4328  -3.2910  -3.1541  -3.0237  -2.9010  -2.7875  -2.6845  -2.5929  -2.5137  -2.4466  -2.3912  -2.3463  -2.3104  -2.2820  -2.2596  -2.2421  -2.2283  -2.2175  -2.2089  -2.2020  -2.1965  -2.1921  -2.1885  -2.1855  -2.1831  -2.1811  -2.1794  -2.1780  -2.1768  -2.1758  -2.1749  -2.1742  -2.1736  -2.1730  -2.1726  -2.1722  -2.1718  -2.1715  -2.1712  -2.1710  -2.1707  -2.1706  -2.1704  -2.1702  -2.1701  -2.1699  -2.1698  -2.1697  -2.1696  -2.1694  -2.1693  -2.1692  -2.1690  -2.1689  -2.1687  -2.1685  -2.1683  -2.1681  -2.1679  -2.1676  -2.1673  -2.1670  -2.1666  -2.1662  -2.1657  -2.1652  -2.1646  -2.1639  -2.1632  -2.1623  -2.1613  -2.1601  -2.1587  -2.1572  -2.1554
3.200  -4.9859  -4.9246  -4.8536  -4.7725  -4.6813  -4.5797  -4.4681  -4.3471  -4.2179  -4.0822  -3.9417  -3.7988  -3.6558  -3.5149  -3.3780  -3.2462  -3.1204  -3.0015  -2.8910  -2.7903  -2.7009  -2.6237  -2.5587  -2.5053  -2.4623  -2.4282  -2.4014  -2.3805  -2.3643  -2.3515  -2.3416  -2.3337  -2.3275  -2.3226  -2.3186  -2.3154  -2.3128  -2.3107  -2.3089  -2.3075  -2.3063  -2.3052  -2.3044  -2.3036  -2.3030  -2.3025  -2.3020  -2.3016  -2.3013  -2.3010  -2.3007  -2.3005  -2.3003  -2.3001  -2.2999  -2.2998  -2.2996  -2.2995  -2.2993  -2.2992  -2.2990  -2.2989  -2.2987  -2.2985  -2.2984  -2.2981  -2.2979  -2.2976  -2.2973  -2.2970  -2.2966  -2.2961  -2.2956  -2.2950  -2.2943  -2.2936  -2.2927  -2.2917  -2.2905  -2.2893  -2.2878  -2.2861  -2.2843  -2.2822  -2.2798  -2.2772  -2.2743  -2.2711  -2.2676  -2.2639  -2.2599
#
# AESOPUS computation completed
