#  Calculations performed with AESOPUS via the web interface: http://stev.oapd.inaf.it/aesopus
#  Date:  10/07/2019; Central European Time  22:18:17
#  Tables of Rosseland mean opacities
#  Reference paper: Marigo & Aringer (2009, A&A, 508, 1539)
#
#  Definitions:
#  The base-10 logarithm of the Rosseland mean opacity [cm**2/g] as a function
#  of log10(T) for columns of constant log10(R), where:
#  R=density[g/cm**3]/T6**3, T6=1.e-6*T[K]
#
#  Ranges of state parameters
#
#  log10(T) range: nt=  67  values from  4.500  to  3.200
#  log10(T) = [3.200,3.700] in steps of  0.010
#  log10(T) = ]3.700,4.500] in steps of  0.050
#
#  log10(R) range: nre= 91  values from -8.000  to  1.000
#                           in steps of  0.100
#
#
#  Composition parameters:
#
#       X     = hydrogen mass fraction
#               mh =  1 values from 0.700 to 0.700 in steps of 0.200
#       Zref  = 4.000000E-02  reference metallicity
#       Z     = actual metallicity
#
#       Reference solar mixture: Grevesse & Sauval 1998 ---- Zsun =  0.01696  (C/O)sun =  0.48978
#
#     Zi   element   (ni/nz)sun         (Xi/Z)sun         <Ai>
#
#      3     Li     9.323684E-09     3.757845E-09     6.941739E+00
#      4     Be     1.859891E-08     9.731966E-09     9.012183E+00
#      5     B      2.627166E-07     1.649247E-07     1.081222E+01
#      6     C      2.451814E-01     1.709837E-01     1.201114E+01
#      7     N      6.158679E-02     5.008508E-02     1.400676E+01
#      8     O      5.005962E-01     4.650221E-01     1.599938E+01
#      9     F      2.688361E-05     2.965430E-05     1.899841E+01
#     10     Ne     8.904049E-02     1.042809E-01     2.017132E+01
#     11     Na     1.583024E-03     2.113028E-03     2.298977E+01
#     12     Mg     2.814411E-02     3.972350E-02     2.430955E+01
#     13     Al     2.184679E-03     3.422452E-03     2.698154E+01
#     14     Si     2.627166E-02     4.284049E-02     2.808561E+01
#     15     P      2.086832E-04     3.752879E-04     3.097377E+01
#     16     S      1.583024E-02     2.947097E-02     3.206445E+01
#     17     Cl     2.341464E-04     4.820356E-04     3.545753E+01
#     18     Ar     1.859891E-03     4.313819E-03     3.994766E+01
#     19     K      9.758600E-05     2.215449E-04     3.910130E+01
#     20     Ca     1.696632E-03     3.947852E-03     4.007654E+01
#     21     Sc     1.094933E-06     2.857969E-06     4.495592E+01
#     22     Ti     7.753317E-05     2.155336E-04     4.787893E+01
#     23     V      7.404360E-06     2.189994E-05     5.094157E+01
#     24     Cr     3.463279E-04     1.045572E-03     5.199762E+01
#     25     Mn     1.817136E-04     5.796206E-04     5.493805E+01
#     26     Fe     2.341464E-02     7.592291E-02     5.584731E+01
#     27     Co     6.158679E-05     2.107320E-04     5.893319E+01
#     28     Ni     1.316702E-03     4.487945E-03     5.870525E+01
#     29     Cu     1.201123E-05     4.431668E-05     6.354723E+01
#     30     Zn     2.947729E-05     1.119080E-04     6.538687E+01
#     31     Ga     5.616782E-07     2.273583E-06     6.971723E+01
#     32     Ge     1.903214E-06     8.025819E-06     7.263045E+01
#     33     As     1.736151E-07     7.552272E-07     7.492160E+01
#     34     Se     1.903214E-06     8.728593E-06     7.899028E+01
#     35     Br     3.158548E-07     1.465389E-06     7.990652E+01
#     36     Kr     1.511428E-06     7.353928E-06     8.380092E+01
#     37     Rb     2.947729E-07     1.462765E-06     8.546807E+01
#     38     Sr     6.910151E-07     3.515251E-06     8.761646E+01
#     39     Y      1.287027E-07     6.643562E-07     8.890587E+01
#     40     Zr     2.947729E-07     1.561272E-06     9.122375E+01
#     41     Nb     1.947545E-08     1.050549E-07     9.290638E+01
#     42     Mo     6.158679E-08     3.428800E-07     9.588960E+01
#     43     Tc     0.000000E+00     0.000000E+00     9.690639E+01
#     44     Ru     5.122566E-08     3.005927E-07     1.010666E+02
#     45     Rh     9.758600E-09     5.830546E-08     1.029055E+02
#     46     Pd     3.626499E-08     2.240978E-07     1.064307E+02
#     47     Ag     6.448928E-09     4.038921E-08     1.078685E+02
#     48     Cd     4.360011E-08     2.845931E-07     1.124227E+02
#     49     In     3.384446E-08     2.256221E-07     1.148183E+02
#     50     Sn     7.404360E-08     5.104404E-07     1.187338E+02
#     51     Sb     7.404360E-09     5.234457E-08     1.217590E+02
#     52     Te     1.287027E-07     9.537093E-07     1.276278E+02
#     53     I      2.395452E-08     1.765011E-07     1.269045E+02
#     54     Xe     1.094933E-07     8.346586E-07     1.312920E+02
#     55     Cs     9.990507E-09     7.709272E-08     1.329054E+02
#     56     Ba     9.990507E-08     7.965774E-07     1.373275E+02
#     57     La     1.094933E-08     8.830597E-08     1.389055E+02
#     58     Ce     2.814411E-08     2.289570E-07     1.401146E+02
#     59     Pr     3.796536E-09     3.106028E-08     1.409077E+02
#     60     Nd     2.341464E-08     1.960919E-07     1.442411E+02
#     61     Pm     0.000000E+00     0.000000E+00     1.449128E+02
#     62     Sm     7.576830E-09     6.614742E-08     1.503635E+02
#     63     Eu     2.395452E-09     2.113547E-08     1.519642E+02
#     64     Gd     9.758600E-09     8.909990E-08     1.572558E+02
#     65     Tb     5.881492E-10     5.427051E-09     1.589254E+02
#     66     Dy     1.022322E-08     9.645489E-08     1.625001E+02
#     67     Ho     1.347372E-09     1.290242E-08     1.649304E+02
#     68     Er     6.302133E-09     6.120210E-08     1.672614E+02
#     69     Tm     7.404360E-10     7.262536E-09     1.689342E+02
#     70     Yb     8.904049E-09     8.945589E-08     1.730367E+02
#     71     Lu     8.503301E-10     8.638257E-09     1.749667E+02
#     72     Hf     5.616782E-09     5.820847E-08     1.784907E+02
#     73     Ta     5.488928E-10     5.766657E-09     1.809479E+02
#     74     W      9.540860E-09     1.018390E-07     1.838415E+02
#     75     Re     1.410872E-09     1.525392E-08     1.862134E+02
#     76     Os     2.086832E-08     2.304976E-07     1.902374E+02
#     77     Ir     1.658011E-08     1.850377E-07     1.922161E+02
#     78     Pt     4.671835E-08     5.291572E-07     1.950806E+02
#     79     Au     7.576830E-09     8.664890E-08     1.969666E+02
#     80     Hg     9.990507E-09     1.163576E-07     2.005969E+02
#     81     Tl     5.881492E-09     6.979384E-08     2.043838E+02
#     82     Pb     6.599143E-08     7.939617E-07     2.072187E+02
#     83     Bi     3.796536E-09     4.606554E-08     2.089804E+02
#     84     Po     0.000000E+00     0.000000E+00     2.089824E+02
#     85     At     0.000000E+00     0.000000E+00     2.099870E+02
#     86     Rn     0.000000E+00     0.000000E+00     2.220176E+02
#     87     Fr     0.000000E+00     0.000000E+00     2.230198E+02
#     88     Ra     0.000000E+00     0.000000E+00     2.260254E+02
#     89     Ac     0.000000E+00     0.000000E+00     2.270278E+02
#     90     Th     9.105159E-10     1.226676E-08     2.320381E+02
#     91     Pa     0.000000E+00     0.000000E+00     2.310359E+02
#     92     U      2.341464E-10     3.235939E-09     2.380289E+02
#     93     Np     0.000000E+00     0.000000E+00     2.370482E+02
#     94     Pu     0.000000E+00     0.000000E+00     2.440642E+02
#     95     Am     0.000000E+00     0.000000E+00     2.430614E+02
#     96     Cm     0.000000E+00     0.000000E+00     2.470704E+02
#     97     Bk     0.000000E+00     0.000000E+00     2.470703E+02
#     98     Cf     0.000000E+00     0.000000E+00     2.510796E+02
#     99     Es     0.000000E+00     0.000000E+00     2.540881E+02
#
#
#  Abundance ratio variations of metals with respect to 
#  scaled-solar values: [X_i/Fe] (in dex)
#  Fe-group elements: V, Cr, Mn, Fe, Co, Ni, Cu, Zn
#  Reference metallicity is preserved:  Zref = Z
#  No change in any metal abundance
#
#       1    H         -----      34   [Se/Fe]=   0.000      67   [Ho/Fe]=   0.000
#       2    He        -----      35   [Br/Fe]=   0.000      68   [Er/Fe]=   0.000
#       3   [Li/Fe]=   0.000      36   [Kr/Fe]=   0.000      69   [Tm/Fe]=   0.000
#       4   [Be/Fe]=   0.000      37   [Rb/Fe]=   0.000      70   [Yb/Fe]=   0.000
#       5   [B /Fe]=   0.000      38   [Sr/Fe]=   0.000      71   [Lu/Fe]=   0.000
#       6   [C /Fe]=   0.000      39   [Y /Fe]=   0.000      72   [Hf/Fe]=   0.000
#       7   [N /Fe]=   0.000      40   [Zr/Fe]=   0.000      73   [Ta/Fe]=   0.000
#       8   [O /Fe]=   0.000      41   [Nb/Fe]=   0.000      74   [W /Fe]=   0.000
#       9   [F /Fe]=   0.000      42   [Mo/Fe]=   0.000      75   [Re/Fe]=   0.000
#      10   [Ne/Fe]=   0.000      43   [Tc/Fe]=   0.000      76   [Os/Fe]=   0.000
#      11   [Na/Fe]=   0.000      44   [Ru/Fe]=   0.000      77   [Ir/Fe]=   0.000
#      12   [Mg/Fe]=   0.000      45   [Rh/Fe]=   0.000      78   [Pt/Fe]=   0.000
#      13   [Al/Fe]=   0.000      46   [Pd/Fe]=   0.000      79   [Au/Fe]=   0.000
#      14   [Si/Fe]=   0.000      47   [Ag/Fe]=   0.000      80   [Hg/Fe]=   0.000
#      15   [P /Fe]=   0.000      48   [Cd/Fe]=   0.000      81   [Tl/Fe]=   0.000
#      16   [S /Fe]=   0.000      49   [In/Fe]=   0.000      82   [Pb/Fe]=   0.000
#      17   [Cl/Fe]=   0.000      50   [Sn/Fe]=   0.000      83   [Bi/Fe]=   0.000
#      18   [Ar/Fe]=   0.000      51   [Sb/Fe]=   0.000      84   [Po/Fe]=   0.000
#      19   [K /Fe]=   0.000      52   [Te/Fe]=   0.000      85   [At/Fe]=   0.000
#      20   [Ca/Fe]=   0.000      53   [I /Fe]=   0.000      86   [Rn/Fe]=   0.000
#      21   [Sc/Fe]=   0.000      54   [Xe/Fe]=   0.000      87   [Fr/Fe]=   0.000
#      22   [Ti/Fe]=   0.000      55   [Cs/Fe]=   0.000      88   [Ra/Fe]=   0.000
#      23    V         -----      56   [Ba/Fe]=   0.000      89   [Ac/Fe]=   0.000
#      24    Cr        -----      57   [La/Fe]=   0.000      90   [Th/Fe]=   0.000
#      25    Mn        -----      58   [Ce/Fe]=   0.000      91   [Pa/Fe]=   0.000
#      26    Fe        -----      59   [Pr/Fe]=   0.000      92   [U /Fe]=   0.000
#      27    Co        -----      60   [Nd/Fe]=   0.000      93   [Np/Fe]=   0.000
#      28    Ni        -----      61   [Pm/Fe]=   0.000      94   [Pu/Fe]=   0.000
#      29    Cu        -----      62   [Sm/Fe]=   0.000      95   [Am/Fe]=   0.000
#      30    Zn        -----      63   [Eu/Fe]=   0.000      96   [Cm/Fe]=   0.000
#      31   [Ga/Fe]=   0.000      64   [Gd/Fe]=   0.000      97   [Bk/Fe]=   0.000
#      32   [Ge/Fe]=   0.000      65   [Tb/Fe]=   0.000      98   [Cf/Fe]=   0.000
#      33   [As/Fe]=   0.000      66   [Dy/Fe]=   0.000      99   [Es/Fe]=   0.000
#
#
#  Individual variations of metal abundances (number fraction): log10(variation factor) (in dex)
#  Reference metallicity is in general NOT preserved Zref != Z
#
#       1   H    -----      34   Se   0.000      67   Ho   0.000
#       2   He   -----      35   Br   0.000      68   Er   0.000
#       3   Li   0.000      36   Kr   0.000      69   Tm   0.000
#       4   Be   0.000      37   Rb   0.000      70   Yb   0.000
#       5   B    0.000      38   Sr   0.000      71   Lu   0.000
#       6   C    0.000      39   Y    0.000      72   Hf   0.000
#       7   N    0.000      40   Zr   0.000      73   Ta   0.000
#       8   O    0.000      41   Nb   0.000      74   W    0.000
#       9   F    0.000      42   Mo   0.000      75   Re   0.000
#      10   Ne   0.000      43   Tc   0.000      76   Os   0.000
#      11   Na   0.000      44   Ru   0.000      77   Ir   0.000
#      12   Mg   0.000      45   Rh   0.000      78   Pt   0.000
#      13   Al   0.000      46   Pd   0.000      79   Au   0.000
#      14   Si   0.000      47   Ag   0.000      80   Hg   0.000
#      15   P    0.000      48   Cd   0.000      81   Tl   0.000
#      16   S    0.000      49   In   0.000      82   Pb   0.000
#      17   Cl   0.000      50   Sn   0.000      83   Bi   0.000
#      18   Ar   0.000      51   Sb   0.000      84   Po   0.000
#      19   K    0.000      52   Te   0.000      85   At   0.000
#      20   Ca   0.000      53   I    0.000      86   Rn   0.000
#      21   Sc   0.000      54   Xe   0.000      87   Fr   0.000
#      22   Ti   0.000      55   Cs   0.000      88   Ra   0.000
#      23   V    0.000      56   Ba   0.000      89   Ac   0.000
#      24   Cr   0.000      57   La   0.000      90   Th   0.000
#      25   Mn   0.000      58   Ce   0.000      91   Pa   0.000
#      26   Fe   0.000      59   Pr   0.000      92   U    0.000
#      27   Co   0.000      60   Nd   0.000      93   Np   0.000
#      28   Ni   0.000      61   Pm   0.000      94   Pu   0.000
#      29   Cu   0.000      62   Sm   0.000      95   Am   0.000
#      30   Zn   0.000      63   Eu   0.000      96   Cm   0.000
#      31   Ga   0.000      64   Gd   0.000      97   Bk   0.000
#      32   Ge   0.000      65   Tb   0.000      98   Cf   0.000
#      33   As   0.000      66   Dy   0.000      99   Es   0.000
#
#
#              VARIATION GRID OF C/O - C - N ABUNDANCES (in number fraction)
#
#          FCO = log10(variation factor) of C/O ratio
#
#
#           FC = log10(variation factor) of carbon abundance
#
#
#           FN = log10(variation factor) of nitrogen abundance
#
#
#           FO = FC - FCO = log10(variation factor) of oxygen abundance 
#
#
#              TOTAL NUMBER OF TABLES:   mh x mco x mc x mn =     1
#
#
# TABLE      1     X=  0.700000     Y=  0.260000     Zref= 4.000000E-02     Z= 4.000000E-02     FCO=  0.000   FC=  0.000   FN=  0.000   FO=  0.000  C/O=   4.8978E-01
#
#     Zi   element     ni/nz             Xi/Z            ni/nH            Xi/XH             <Ai>
#
#      3     Li     9.323684E-09     3.757845E-09     3.118048E-11     2.147340E-10       6.941739
#      4     Be     1.859891E-08     9.731966E-09     6.219891E-11     5.561124E-10       9.012183
#      5     B      2.627166E-07     1.649247E-07     8.785830E-10     9.424267E-09      10.812224
#      6     C      2.451814E-01     1.709837E-01     8.199414E-04     9.770497E-03      12.011137
#      7     N      6.158679E-02     5.008508E-02     2.059600E-04     2.862005E-03      14.006763
#      8     O      5.005962E-01     4.650221E-01     1.674105E-03     2.657269E-02      15.999375
#      9     F      2.688361E-05     2.965430E-05     8.990478E-08     1.694532E-06      18.998405
#     10     Ne     8.904049E-02     1.042809E-01     2.977713E-04     5.958911E-03      20.171321
#     11     Na     1.583024E-03     2.113028E-03     5.293986E-06     1.207445E-04      22.989771
#     12     Mg     2.814411E-02     3.972350E-02     9.412019E-05     2.269914E-03      24.309551
#     13     Al     2.184679E-03     3.422452E-03     7.306053E-06     1.955687E-04      26.981541
#     14     Si     2.627166E-02     4.284049E-02     8.785830E-05     2.448028E-03      28.085611
#     15     P      2.086832E-04     3.752879E-04     6.978833E-07     2.144502E-05      30.973765
#     16     S      1.583024E-02     2.947097E-02     5.293986E-05     1.684055E-03      32.064451
#     17     Cl     2.341464E-04     4.820356E-04     7.830379E-07     2.754489E-05      35.457532
#     18     Ar     1.859891E-03     4.313819E-03     6.219891E-06     2.465040E-04      39.947662
#     19     K      9.758600E-05     2.215449E-04     3.263494E-07     1.265971E-05      39.101298
#     20     Ca     1.696632E-03     3.947852E-03     5.673915E-06     2.255915E-04      40.076544
#     21     Sc     1.094933E-06     2.857969E-06     3.661700E-09     1.633125E-07      44.955917
#     22     Ti     7.753317E-05     2.155336E-04     2.592882E-07     1.231621E-05      47.878925
#     23     V      7.404360E-06     2.189994E-05     2.476183E-08     1.251425E-06      50.941572
#     24     Cr     3.463279E-04     1.045572E-03     1.158198E-06     5.974699E-05      51.997623
#     25     Mn     1.817136E-04     5.796206E-04     6.076910E-07     3.312118E-05      54.938046
#     26     Fe     2.341464E-02     7.592291E-02     7.830379E-05     4.338452E-03      55.847311
#     27     Co     6.158679E-05     2.107320E-04     2.059600E-07     1.204183E-05      58.933189
#     28     Ni     1.316702E-03     4.487945E-03     4.403346E-06     2.564540E-04      58.705254
#     29     Cu     1.201123E-05     4.431668E-05     4.016824E-08     2.532382E-06      63.547234
#     30     Zn     2.947729E-05     1.119080E-04     9.857863E-08     6.394743E-06      65.386875
#     31     Ga     5.616782E-07     2.273583E-06     1.878377E-09     1.299190E-07      69.717234
#     32     Ge     1.903214E-06     8.025819E-06     6.364771E-09     4.586182E-07      72.630452
#     33     As     1.736151E-07     7.552272E-07     5.806077E-10     4.315584E-08      74.921600
#     34     Se     1.903214E-06     8.728593E-06     6.364771E-09     4.987767E-07      78.990277
#     35     Br     3.158548E-07     1.465389E-06     1.056289E-09     8.373649E-08      79.906523
#     36     Kr     1.511428E-06     7.353928E-06     5.054553E-09     4.202245E-07      83.800924
#     37     Rb     2.947729E-07     1.462765E-06     9.857863E-10     8.358656E-08      85.468072
#     38     Sr     6.910151E-07     3.515251E-06     2.310909E-09     2.008715E-07      87.616461
#     39     Y      1.287027E-07     6.643562E-07     4.304104E-10     3.796321E-08      88.905867
#     40     Zr     2.947729E-07     1.561272E-06     9.857863E-10     8.921553E-08      91.223746
#     41     Nb     1.947545E-08     1.050549E-07     6.513026E-11     6.003135E-09      92.906380
#     42     Mo     6.158679E-08     3.428800E-07     2.059600E-10     1.959314E-08      95.889605
#     43     Tc     0.000000E+00     0.000000E+00     0.000000E+00     0.000000E+00      96.906390
#     44     Ru     5.122566E-08     3.005927E-07     1.713100E-10     1.717673E-08     101.066641
#     45     Rh     9.758600E-09     5.830546E-08     3.263494E-11     3.331741E-09     102.905511
#     46     Pd     3.626499E-08     2.240978E-07     1.212782E-10     1.280559E-08     106.430727
#     47     Ag     6.448928E-09     4.038921E-08     2.156666E-11     2.307955E-09     107.868530
#     48     Cd     4.360011E-08     2.845931E-07     1.458085E-10     1.626247E-08     112.422659
#     49     In     3.384446E-08     2.256221E-07     1.131834E-10     1.289269E-08     114.818279
#     50     Sn     7.404360E-08     5.104404E-07     2.476183E-10     2.916802E-08     118.733825
#     51     Sb     7.404360E-09     5.234457E-08     2.476183E-11     2.991118E-09     121.758986
#     52     Te     1.287027E-07     9.537093E-07     4.304104E-10     5.449768E-08     127.627845
#     53     I      2.395452E-08     1.765011E-07     8.010927E-11     1.008578E-08     126.904474
#     54     Xe     1.094933E-07     8.346586E-07     3.661700E-10     4.769478E-08     131.292004
#     55     Cs     9.990507E-09     7.709272E-08     3.341049E-11     4.405298E-09     132.905440
#     56     Ba     9.990507E-08     7.965774E-07     3.341049E-10     4.551871E-08     137.327464
#     57     La     1.094933E-08     8.830597E-08     3.661700E-11     5.046055E-09     138.905511
#     58     Ce     2.814411E-08     2.289570E-07     9.412019E-11     1.308326E-08     140.114588
#     59     Pr     3.796536E-09     3.106028E-08     1.269646E-11     1.774873E-09     140.907700
#     60     Nd     2.341464E-08     1.960919E-07     7.830379E-11     1.120525E-08     144.241079
#     61     Pm     0.000000E+00     0.000000E+00     0.000000E+00     0.000000E+00     144.912790
#     62     Sm     7.576830E-09     6.614742E-08     2.533861E-11     3.779853E-09     150.363469
#     63     Eu     2.395452E-09     2.113547E-08     8.010927E-12     1.207741E-09     151.964200
#     64     Gd     9.758600E-09     8.909990E-08     3.263494E-11     5.091423E-09     157.255784
#     65     Tb     5.881492E-10     5.427051E-09     1.966902E-12     3.101172E-10     158.925390
#     66     Dy     1.022322E-08     9.645489E-08     3.418872E-11     5.511708E-09     162.500111
#     67     Ho     1.347372E-09     1.290242E-08     4.505913E-12     7.372812E-10     164.930360
#     68     Er     6.302133E-09     6.120210E-08     2.107574E-11     3.497263E-09     167.261394
#     69     Tm     7.404360E-10     7.262536E-09     2.476183E-12     4.150020E-10     168.934240
#     70     Yb     8.904049E-09     8.945589E-08     2.977713E-11     5.111765E-09     173.036747
#     71     Lu     8.503301E-10     8.638257E-09     2.843694E-12     4.936147E-10     174.966749
#     72     Hf     5.616782E-09     5.820847E-08     1.878377E-11     3.326198E-09     178.490703
#     73     Ta     5.488928E-10     5.766657E-09     1.835620E-12     3.295233E-10     180.947907
#     74     W      9.540860E-09     1.018390E-07     3.190677E-11     5.819372E-09     183.841519
#     75     Re     1.410872E-09     1.525392E-08     4.718270E-12     8.716525E-10     186.213359
#     76     Os     2.086832E-08     2.304976E-07     6.978833E-11     1.317129E-08     190.237368
#     77     Ir     1.658011E-08     1.850377E-07     5.544761E-11     1.057359E-08     192.216095
#     78     Pt     4.671835E-08     5.291572E-07     1.562366E-10     3.023755E-08     195.080617
#     79     Au     7.576830E-09     8.664890E-08     2.533861E-11     4.951366E-09     196.966550
#     80     Hg     9.990507E-09     1.163576E-07     3.341049E-11     6.649007E-09     200.596900
#     81     Tl     5.881492E-09     6.979384E-08     1.966902E-11     3.988220E-09     204.383823
#     82     Pb     6.599143E-08     7.939617E-07     2.206901E-10     4.536924E-08     207.218721
#     83     Bi     3.796536E-09     4.606554E-08     1.269646E-11     2.632316E-09     208.980400
#     84     Po     0.000000E+00     0.000000E+00     0.000000E+00     0.000000E+00     208.982440
#     85     At     0.000000E+00     0.000000E+00     0.000000E+00     0.000000E+00     209.987040
#     86     Rn     0.000000E+00     0.000000E+00     0.000000E+00     0.000000E+00     222.017610
#     87     Fr     0.000000E+00     0.000000E+00     0.000000E+00     0.000000E+00     223.019760
#     88     Ra     0.000000E+00     0.000000E+00     0.000000E+00     0.000000E+00     226.025440
#     89     Ac     0.000000E+00     0.000000E+00     0.000000E+00     0.000000E+00     227.027770
#     90     Th     9.105159E-10     1.226676E-08     3.044968E-12     7.009577E-10     232.038080
#     91     Pa     0.000000E+00     0.000000E+00     0.000000E+00     0.000000E+00     231.035900
#     92     U      2.341464E-10     3.235939E-09     7.830379E-13     1.849108E-10     238.028942
#     93     Np     0.000000E+00     0.000000E+00     0.000000E+00     0.000000E+00     237.048190
#     94     Pu     0.000000E+00     0.000000E+00     0.000000E+00     0.000000E+00     244.064240
#     95     Am     0.000000E+00     0.000000E+00     0.000000E+00     0.000000E+00     243.061390
#     96     Cm     0.000000E+00     0.000000E+00     0.000000E+00     0.000000E+00     247.070380
#     97     Bk     0.000000E+00     0.000000E+00     0.000000E+00     0.000000E+00     247.070320
#     98     Cf     0.000000E+00     0.000000E+00     0.000000E+00     0.000000E+00     251.079610
#     99     Es     0.000000E+00     0.000000E+00     0.000000E+00     0.000000E+00     254.088050
#
#
4.500  -0.4105  -0.4079  -0.4051  -0.4020  -0.3990  -0.3957  -0.3921  -0.3880  -0.3835  -0.3785  -0.3729  -0.3665  -0.3592  -0.3508  -0.3413  -0.3304  -0.3181  -0.3040  -0.2879  -0.2708  -0.2519  -0.2310  -0.2082  -0.1833  -0.1578  -0.1307  -0.1013  -0.0695  -0.0352  -0.0001   0.0372   0.0777   0.1215   0.1687   0.2186   0.2715   0.3280   0.3884   0.4523   0.5198   0.5908   0.6652   0.7427   0.8232   0.9076   0.9951   1.0853   1.1777   1.2724   1.3698   1.4696   1.5712   1.6745   1.7795   1.8845   1.9901   2.0972   2.2054   2.3149   2.4214   2.5265   2.6324   2.7394   2.8470   2.9512   3.0533   3.1565   3.2605   3.3650   3.4676   3.5688   3.6703   3.7720   3.8736   3.9737   4.0711   4.1674   4.2622   4.3544   4.4438   4.5295   4.6113   4.6896   4.7634   4.8326   4.8972   4.9561   5.0099   5.0596   5.1048   5.1458
4.450  -0.4309  -0.4284  -0.4257  -0.4227  -0.4195  -0.4159  -0.4119  -0.4074  -0.4020  -0.3953  -0.3883  -0.3816  -0.3739  -0.3651  -0.3550  -0.3440  -0.3329  -0.3203  -0.3062  -0.2904  -0.2731  -0.2560  -0.2371  -0.2163  -0.1935  -0.1687  -0.1433  -0.1157  -0.0857  -0.0530  -0.0176   0.0207   0.0624   0.1075   0.1563   0.2089   0.2664   0.3278   0.3930   0.4619   0.5346   0.6122   0.6931   0.7772   0.8642   0.9539   1.0465   1.1413   1.2382   1.3369   1.4372   1.5372   1.6388   1.7418   1.8462   1.9513   2.0539   2.1576   2.2621   2.3675   2.4733   2.5751   2.6774   2.7804   2.8839   2.9879   3.0878   3.1884   3.2894   3.3908   3.4923   3.5908   3.6888   3.7865   3.8836   3.9797   4.0730   4.1631   4.2511   4.3364   4.4181   4.4962   4.5698   4.6386   4.7034   4.7638   4.8198   4.8717   4.9194   4.9628   5.0027
4.400  -0.4395  -0.4379  -0.4364  -0.4346  -0.4321  -0.4289  -0.4250  -0.4213  -0.4172  -0.4123  -0.4065  -0.3996  -0.3929  -0.3859  -0.3778  -0.3686  -0.3581  -0.3472  -0.3358  -0.3232  -0.3092  -0.2937  -0.2767  -0.2581  -0.2376  -0.2150  -0.1902  -0.1628  -0.1327  -0.0997  -0.0636  -0.0240   0.0198   0.0680   0.1202   0.1762   0.2361   0.3009   0.3701   0.4431   0.5196   0.5996   0.6827   0.7687   0.8575   0.9484   1.0414   1.1348   1.2290   1.3246   1.4216   1.5199   1.6176   1.7156   1.8147   1.9152   2.0167   2.1176   2.2185   2.3202   2.4225   2.5255   2.6268   2.7267   2.8269   2.9275   3.0283   3.1278   3.2251   3.3226   3.4199   3.5170   3.6132   3.7058   3.7973   3.8872   3.9750   4.0602   4.1412   4.2181   4.2914   4.3609   4.4264   4.4881   4.5456   4.5979   4.6469   4.6925   4.7347   4.7740   4.8107
4.350  -0.4557  -0.4535  -0.4508  -0.4478  -0.4451  -0.4419  -0.4381  -0.4336  -0.4286  -0.4238  -0.4185  -0.4125  -0.4059  -0.3987  -0.3915  -0.3836  -0.3749  -0.3655  -0.3550  -0.3433  -0.3303  -0.3158  -0.2994  -0.2809  -0.2600  -0.2367  -0.2108  -0.1818  -0.1496  -0.1138  -0.0743  -0.0312   0.0156   0.0662   0.1204   0.1784   0.2401   0.3055   0.3741   0.4449   0.5190   0.5960   0.6760   0.7585   0.8425   0.9288   1.0170   1.1071   1.1988   1.2921   1.3867   1.4826   1.5796   1.6775   1.7762   1.8755   1.9753   2.0755   2.1757   2.2747   2.3738   2.4730   2.5723   2.6718   2.7690   2.8662   2.9636   3.0613   3.1591   3.2544   3.3479   3.4407   3.5321   3.6218   3.7088   3.7904   3.8691   3.9445   4.0163   4.0844   4.1487   4.2071   4.2619   4.3132   4.3611   4.4058   4.4477   4.4869   4.5228   4.5559   4.5872
4.300  -0.4705  -0.4692  -0.4673  -0.4648  -0.4622  -0.4598  -0.4571  -0.4541  -0.4508  -0.4470  -0.4428  -0.4382  -0.4332  -0.4278  -0.4218  -0.4151  -0.4076  -0.3991  -0.3896  -0.3787  -0.3662  -0.3518  -0.3355  -0.3168  -0.2955  -0.2716  -0.2450  -0.2152  -0.1818  -0.1448  -0.1048  -0.0617  -0.0147   0.0363   0.0910   0.1484   0.2089   0.2729   0.3403   0.4109   0.4849   0.5619   0.6416   0.7238   0.8082   0.8956   0.9855   1.0768   1.1693   1.2629   1.3581   1.4548   1.5519   1.6496   1.7477   1.8460   1.9446   2.0437   2.1432   2.2432   2.3428   2.4417   2.5411   2.6408   2.7406   2.8399   2.9349   3.0294   3.1230   3.2153   3.3060   3.3907   3.4715   3.5496   3.6246   3.6961   3.7640   3.8258   3.8831   3.9369   3.9875   4.0348   4.0791   4.1207   4.1588   4.1939   4.2271   4.2584   4.2882   4.3167   4.3442
4.250  -0.4779  -0.4763  -0.4745  -0.4724  -0.4699  -0.4671  -0.4640  -0.4605  -0.4567  -0.4525  -0.4478  -0.4425  -0.4371  -0.4311  -0.4244  -0.4167  -0.4077  -0.3983  -0.3873  -0.3747  -0.3600  -0.3434  -0.3262  -0.3067  -0.2846  -0.2594  -0.2313  -0.2019  -0.1692  -0.1331  -0.0934  -0.0502  -0.0038   0.0462   0.0999   0.1572   0.2180   0.2835   0.3524   0.4242   0.4988   0.5762   0.6577   0.7413   0.8265   0.9133   1.0013   1.0923   1.1842   1.2769   1.3703   1.4646   1.5604   1.6570   1.7545   1.8528   1.9518   2.0507   2.1500   2.2497   2.3495   2.4492   2.5461   2.6412   2.7354   2.8283   2.9196   3.0078   3.0896   3.1687   3.2448   3.3175   3.3866   3.4512   3.5092   3.5639   3.6152   3.6635   3.7088   3.7514   3.7912   3.8269   3.8605   3.8924   3.9228   3.9518   3.9797   4.0067   4.0330   4.0578   4.0818
4.200  -0.4813  -0.4786  -0.4757  -0.4726  -0.4692  -0.4656  -0.4614  -0.4569  -0.4527  -0.4484  -0.4437  -0.4384  -0.4326  -0.4270  -0.4212  -0.4146  -0.4068  -0.3978  -0.3881  -0.3774  -0.3650  -0.3504  -0.3334  -0.3144  -0.2929  -0.2686  -0.2409  -0.2098  -0.1748  -0.1360  -0.0934  -0.0471   0.0030   0.0575   0.1161   0.1782   0.2436   0.3119   0.3837   0.4589   0.5363   0.6158   0.6971   0.7809   0.8675   0.9555   1.0451   1.1361   1.2287   1.3235   1.4192   1.5158   1.6131   1.7109   1.8084   1.9060   2.0038   2.1013   2.1982   2.2908   2.3827   2.4733   2.5622   2.6492   2.7306   2.8085   2.8836   2.9555   3.0240   3.0891   3.1484   3.2029   3.2542   3.3023   3.3475   3.3899   3.4298   3.4665   3.4995   3.5308   3.5607   3.5892   3.6167   3.6432   3.6690   3.6942   3.7176   3.7404   3.7632   3.7860   3.8090
4.150  -0.4751  -0.4731  -0.4708  -0.4683  -0.4657  -0.4637  -0.4616  -0.4592  -0.4565  -0.4537  -0.4511  -0.4482  -0.4447  -0.4407  -0.4360  -0.4307  -0.4242  -0.4165  -0.4072  -0.3963  -0.3834  -0.3684  -0.3508  -0.3305  -0.3072  -0.2805  -0.2504  -0.2171  -0.1798  -0.1388  -0.0931  -0.0435   0.0101   0.0675   0.1287   0.1946   0.2643   0.3373   0.4138   0.4932   0.5761   0.6620   0.7500   0.8398   0.9313   1.0245   1.1189   1.2140   1.3098   1.4061   1.5016   1.5966   1.6914   1.7853   1.8785   1.9692   2.0571   2.1431   2.2272   2.3090   2.3882   2.4619   2.5327   2.6003   2.6645   2.7251   2.7816   2.8339   2.8827   2.9283   2.9711   3.0113   3.0490   3.0847   3.1179   3.1482   3.1771   3.2048   3.2315   3.2575   3.2827   3.3075   3.3320   3.3556   3.3784   3.4013   3.4244   3.4478   3.4715   3.4956   3.5202
4.100  -0.4935  -0.4930  -0.4925  -0.4919  -0.4912  -0.4903  -0.4893  -0.4882  -0.4869  -0.4852  -0.4832  -0.4807  -0.4778  -0.4743  -0.4700  -0.4648  -0.4587  -0.4512  -0.4422  -0.4315  -0.4189  -0.4038  -0.3859  -0.3651  -0.3410  -0.3133  -0.2816  -0.2456  -0.2053  -0.1607  -0.1112  -0.0567   0.0028   0.0669   0.1353   0.2078   0.2842   0.3641   0.4471   0.5328   0.6206   0.7099   0.8007   0.8926   0.9852   1.0784   1.1715   1.2635   1.3551   1.4457   1.5355   1.6241   1.7091   1.7921   1.8726   1.9500   2.0244   2.0951   2.1614   2.2236   2.2824   2.3375   2.3891   2.4373   2.4815   2.5230   2.5618   2.5982   2.6326   2.6650   2.6958   2.7241   2.7517   2.7782   2.8038   2.8288   2.8534   2.8777   2.9018   2.9259   2.9500   2.9737   2.9975   3.0214   3.0460   3.0710   3.0967   3.1230   3.1501   3.1780   3.2065
4.050  -0.4953  -0.4952  -0.4951  -0.4951  -0.4950  -0.4950  -0.4949  -0.4948  -0.4945  -0.4939  -0.4930  -0.4916  -0.4897  -0.4868  -0.4829  -0.4778  -0.4711  -0.4626  -0.4524  -0.4396  -0.4241  -0.4057  -0.3840  -0.3585  -0.3292  -0.2958  -0.2582  -0.2163  -0.1698  -0.1188  -0.0635  -0.0034   0.0613   0.1299   0.2025   0.2786   0.3579   0.4401   0.5236   0.6084   0.6946   0.7816   0.8690   0.9552   1.0405   1.1248   1.2075   1.2885   1.3670   1.4422   1.5143   1.5829   1.6483   1.7100   1.7679   1.8220   1.8726   1.9199   1.9639   2.0046   2.0429   2.0787   2.1122   2.1437   2.1731   2.2015   2.2286   2.2547   2.2799   2.3045   2.3288   2.3519   2.3755   2.3992   2.4228   2.4470   2.4712   2.4959   2.5210   2.5447   2.5699   2.5957   2.6222   2.6494   2.6774   2.7062   2.7358   2.7663   2.7976   2.8293   2.8603
4.000  -0.5230  -0.5245  -0.5258  -0.5268  -0.5274  -0.5277  -0.5275  -0.5267  -0.5254  -0.5233  -0.5204  -0.5168  -0.5121  -0.5064  -0.4994  -0.4910  -0.4810  -0.4692  -0.4553  -0.4394  -0.4206  -0.3988  -0.3738  -0.3455  -0.3134  -0.2780  -0.2388  -0.1956  -0.1482  -0.0971  -0.0427   0.0158   0.0779   0.1439   0.2132   0.2839   0.3569   0.4314   0.5068   0.5824   0.6570   0.7303   0.8020   0.8713   0.9381   1.0014   1.0619   1.1189   1.1723   1.2223   1.2689   1.3122   1.3526   1.3904   1.4256   1.4581   1.4890   1.5180   1.5455   1.5718   1.5965   1.6209   1.6445   1.6676   1.6901   1.7125   1.7342   1.7564   1.7785   1.8010   1.8239   1.8473   1.8704   1.8949   1.9198   1.9455   1.9718   1.9990   2.0271   2.0560   2.0848   2.1156   2.1473   2.1800   2.2138   2.2486   2.2843   2.3209   2.3559   2.3937   2.4322
3.950  -0.5352  -0.5341  -0.5327  -0.5309  -0.5289  -0.5263  -0.5234  -0.5202  -0.5165  -0.5121  -0.5070  -0.5010  -0.4941  -0.4860  -0.4767  -0.4657  -0.4535  -0.4398  -0.4240  -0.4060  -0.3857  -0.3639  -0.3392  -0.3116  -0.2813  -0.2477  -0.2119  -0.1736  -0.1324  -0.0882  -0.0415   0.0071   0.0573   0.1090   0.1614   0.2144   0.2673   0.3191   0.3695   0.4180   0.4644   0.5083   0.5499   0.5890   0.6257   0.6600   0.6923   0.7224   0.7509   0.7777   0.8030   0.8269   0.8504   0.8730   0.8950   0.9163   0.9373   0.9581   0.9790   0.9997   1.0207   1.0422   1.0641   1.0865   1.1088   1.1322   1.1563   1.1811   1.2066   1.2330   1.2599   1.2882   1.3174   1.3476   1.3786   1.4105   1.4426   1.4763   1.5108   1.5464   1.5834   1.6216   1.6594   1.6994   1.7403   1.7820   1.8249   1.8688   1.9136   1.9592   2.0042
3.900  -0.5330  -0.5312  -0.5292  -0.5271  -0.5246  -0.5219  -0.5188  -0.5154  -0.5117  -0.5074  -0.5024  -0.4967  -0.4902  -0.4833  -0.4753  -0.4661  -0.4558  -0.4441  -0.4321  -0.4187  -0.4040  -0.3881  -0.3708  -0.3534  -0.3345  -0.3146  -0.2942  -0.2732  -0.2520  -0.2310  -0.2103  -0.1899  -0.1699  -0.1505  -0.1319  -0.1137  -0.0960  -0.0789  -0.0625  -0.0463  -0.0305  -0.0150   0.0005   0.0159   0.0314   0.0470   0.0627   0.0788   0.0952   0.1121   0.1293   0.1474   0.1661   0.1855   0.2055   0.2265   0.2482   0.2706   0.2941   0.3186   0.3439   0.3697   0.3972   0.4256   0.4550   0.4852   0.5164   0.5485   0.5814   0.6152   0.6496   0.6851   0.7219   0.7595   0.7979   0.8368   0.8768   0.9176   0.9591   1.0015   1.0446   1.0888   1.1347   1.1816   1.2295   1.2784   1.3284   1.3790   1.4312   1.4844   1.5387
3.850  -0.5310  -0.5296  -0.5281  -0.5265  -0.5253  -0.5242  -0.5231  -0.5219  -0.5206  -0.5197  -0.5192  -0.5189  -0.5187  -0.5189  -0.5196  -0.5210  -0.5232  -0.5262  -0.5301  -0.5350  -0.5413  -0.5488  -0.5573  -0.5670  -0.5776  -0.5890  -0.6010  -0.6137  -0.6264  -0.6391  -0.6517  -0.6640  -0.6761  -0.6872  -0.6973  -0.7064  -0.7144  -0.7211  -0.7262  -0.7298  -0.7315  -0.7313  -0.7292  -0.7250  -0.7190  -0.7106  -0.7001  -0.6876  -0.6729  -0.6564  -0.6377  -0.6171  -0.5949  -0.5706  -0.5448  -0.5178  -0.4893  -0.4593  -0.4282  -0.3957  -0.3622  -0.3276  -0.2921  -0.2554  -0.2177  -0.1792  -0.1398  -0.0995  -0.0586  -0.0171   0.0253   0.0684   0.1121   0.1557   0.2018   0.2487   0.2963   0.3450   0.3942   0.4445   0.4956   0.5478   0.6007   0.6557   0.7121   0.7700   0.8294   0.8898   0.9523   1.0164   1.0822
3.800  -0.5570  -0.5619  -0.5679  -0.5751  -0.5837  -0.5938  -0.6056  -0.6191  -0.6345  -0.6518  -0.6709  -0.6917  -0.7144  -0.7387  -0.7645  -0.7918  -0.8203  -0.8499  -0.8806  -0.9121  -0.9443  -0.9770  -1.0102  -1.0437  -1.0773  -1.1109  -1.1443  -1.1774  -1.2099  -1.2418  -1.2729  -1.3030  -1.3318  -1.3591  -1.3847  -1.4083  -1.4297  -1.4484  -1.4644  -1.4778  -1.4878  -1.4946  -1.4979  -1.4978  -1.4941  -1.4872  -1.4765  -1.4624  -1.4450  -1.4245  -1.4011  -1.3752  -1.3468  -1.3161  -1.2833  -1.2488  -1.2126  -1.1750  -1.1360  -1.0957  -1.0543  -1.0118  -0.9686  -0.9242  -0.8788  -0.8327  -0.7855  -0.7373  -0.6881  -0.6379  -0.5867  -0.5347  -0.4816  -0.4274  -0.3723  -0.3158  -0.2574  -0.1971  -0.1352  -0.0716  -0.0064   0.0606   0.1294   0.2000   0.2721   0.3463   0.4224   0.5000   0.5790   0.6592   0.7403
3.750  -0.7553  -0.7839  -0.8143  -0.8463  -0.8799  -0.9148  -0.9510  -0.9884  -1.0267  -1.0659  -1.1058  -1.1464  -1.1875  -1.2291  -1.2711  -1.3134  -1.3559  -1.3986  -1.4413  -1.4840  -1.5266  -1.5690  -1.6111  -1.6528  -1.6943  -1.7355  -1.7762  -1.8162  -1.8555  -1.8939  -1.9312  -1.9673  -2.0019  -2.0348  -2.0661  -2.0953  -2.1220  -2.1459  -2.1668  -2.1843  -2.1981  -2.2080  -2.2138  -2.2154  -2.2128  -2.2059  -2.1947  -2.1794  -2.1601  -2.1370  -2.1103  -2.0803  -2.0472  -2.0117  -1.9735  -1.9330  -1.8905  -1.8461  -1.7998  -1.7519  -1.7023  -1.6510  -1.5978  -1.5429  -1.4863  -1.4281  -1.3680  -1.3061  -1.2422  -1.1762  -1.1088  -1.0394  -0.9678  -0.8942  -0.8185  -0.7407  -0.6610  -0.5797  -0.4970  -0.4131  -0.3282  -0.2427  -0.1569  -0.0715   0.0137   0.0986   0.1829   0.2665   0.3493   0.4293   0.5075
3.700  -1.3041  -1.3481  -1.3924  -1.4370  -1.4818  -1.5268  -1.5719  -1.6171  -1.6622  -1.7074  -1.7524  -1.7974  -1.8423  -1.8870  -1.9315  -1.9757  -2.0196  -2.0632  -2.1063  -2.1490  -2.1913  -2.2334  -2.2750  -2.3160  -2.3563  -2.3960  -2.4348  -2.4728  -2.5099  -2.5458  -2.5809  -2.6152  -2.6481  -2.6794  -2.7090  -2.7365  -2.7618  -2.7845  -2.8045  -2.8214  -2.8356  -2.8460  -2.8524  -2.8545  -2.8521  -2.8452  -2.8338  -2.8179  -2.7974  -2.7721  -2.7422  -2.7079  -2.6694  -2.6268  -2.5803  -2.5300  -2.4758  -2.4175  -2.3557  -2.2905  -2.2220  -2.1505  -2.0760  -1.9984  -1.9181  -1.8356  -1.7513  -1.6655  -1.5784  -1.4901  -1.4010  -1.3115  -1.2217  -1.1319  -1.0426  -0.9555  -0.8692  -0.7838  -0.6994  -0.6161  -0.5343  -0.4545  -0.3760  -0.2987  -0.2227  -0.1478  -0.0743  -0.0027   0.0673   0.1362   0.2040
3.690  -1.4469  -1.4922  -1.5376  -1.5832  -1.6289  -1.6746  -1.7204  -1.7661  -1.8117  -1.8572  -1.9026  -1.9478  -1.9928  -2.0375  -2.0820  -2.1262  -2.1701  -2.2136  -2.2566  -2.2992  -2.3413  -2.3828  -2.4237  -2.4639  -2.5036  -2.5427  -2.5810  -2.6184  -2.6548  -2.6901  -2.7243  -2.7571  -2.7884  -2.8182  -2.8467  -2.8731  -2.8973  -2.9189  -2.9376  -2.9532  -2.9654  -2.9739  -2.9784  -2.9789  -2.9749  -2.9662  -2.9528  -2.9344  -2.9113  -2.8832  -2.8504  -2.8122  -2.7694  -2.7220  -2.6703  -2.6144  -2.5544  -2.4906  -2.4225  -2.3510  -2.2763  -2.1986  -2.1183  -2.0356  -1.9508  -1.8646  -1.7772  -1.6892  -1.6008  -1.5122  -1.4236  -1.3353  -1.2477  -1.1607  -1.0745  -0.9898  -0.9068  -0.8250  -0.7445  -0.6651  -0.5870  -0.5104  -0.4355  -0.3617  -0.2893  -0.2181  -0.1481  -0.0793  -0.0120   0.0538   0.1186
3.680  -1.5928  -1.6388  -1.6847  -1.7307  -1.7767  -1.8227  -1.8685  -1.9142  -1.9597  -2.0052  -2.0503  -2.0953  -2.1399  -2.1842  -2.2281  -2.2716  -2.3147  -2.3573  -2.3995  -2.4413  -2.4825  -2.5231  -2.5631  -2.6024  -2.6409  -2.6786  -2.7154  -2.7514  -2.7867  -2.8208  -2.8538  -2.8854  -2.9155  -2.9440  -2.9706  -2.9951  -3.0173  -3.0375  -3.0549  -3.0691  -3.0798  -3.0868  -3.0898  -3.0884  -3.0825  -3.0718  -3.0561  -3.0353  -3.0093  -2.9783  -2.9421  -2.9009  -2.8545  -2.8025  -2.7459  -2.6848  -2.6195  -2.5503  -2.4774  -2.4006  -2.3210  -2.2389  -2.1548  -2.0691  -1.9820  -1.8938  -1.8052  -1.7166  -1.6282  -1.5404  -1.4531  -1.3667  -1.2813  -1.1968  -1.1135  -1.0312  -0.9508  -0.8719  -0.7942  -0.7179  -0.6428  -0.5691  -0.4968  -0.4259  -0.3562  -0.2877  -0.2203  -0.1541  -0.0889  -0.0249   0.0376
3.670  -1.7430  -1.7892  -1.8354  -1.8814  -1.9274  -1.9732  -2.0188  -2.0642  -2.1094  -2.1542  -2.1987  -2.2428  -2.2868  -2.3303  -2.3734  -2.4160  -2.4581  -2.4997  -2.5407  -2.5811  -2.6208  -2.6600  -2.6988  -2.7369  -2.7741  -2.8106  -2.8462  -2.8808  -2.9144  -2.9469  -2.9782  -3.0086  -3.0375  -3.0648  -3.0901  -3.1134  -3.1343  -3.1526  -3.1680  -3.1803  -3.1892  -3.1942  -3.1950  -3.1913  -3.1828  -3.1694  -3.1508  -3.1268  -3.0972  -3.0621  -3.0215  -2.9756  -2.9243  -2.8678  -2.8060  -2.7396  -2.6691  -2.5949  -2.5174  -2.4370  -2.3540  -2.2691  -2.1830  -2.0958  -2.0081  -1.9200  -1.8321  -1.7446  -1.6577  -1.5718  -1.4868  -1.4030  -1.3204  -1.2390  -1.1588  -1.0798  -1.0020  -0.9262  -0.8516  -0.7782  -0.7062  -0.6353  -0.5656  -0.4972  -0.4300  -0.3639  -0.2988  -0.2346  -0.1713  -0.1089  -0.0473
3.660  -1.8948  -1.9408  -1.9867  -2.0324  -2.0779  -2.1231  -2.1682  -2.2129  -2.2573  -2.3013  -2.3449  -2.3881  -2.4308  -2.4730  -2.5147  -2.5559  -2.5968  -2.6371  -2.6768  -2.7159  -2.7543  -2.7919  -2.8289  -2.8650  -2.9004  -2.9355  -2.9697  -3.0030  -3.0352  -3.0662  -3.0960  -3.1244  -3.1513  -3.1766  -3.2004  -3.2220  -3.2412  -3.2576  -3.2710  -3.2811  -3.2874  -3.2897  -3.2878  -3.2811  -3.2695  -3.2526  -3.2303  -3.2023  -3.1687  -3.1290  -3.0836  -3.0327  -2.9766  -2.9154  -2.8495  -2.7787  -2.7041  -2.6264  -2.5460  -2.4634  -2.3789  -2.2931  -2.2066  -2.1197  -2.0328  -1.9462  -1.8601  -1.7749  -1.6906  -1.6075  -1.5255  -1.4447  -1.3654  -1.2873  -1.2103  -1.1345  -1.0598  -0.9864  -0.9150  -0.8447  -0.7755  -0.7075  -0.6405  -0.5744  -0.5093  -0.4453  -0.3820  -0.3195  -0.2576  -0.1964  -0.1358
3.650  -2.0503  -2.0960  -2.1415  -2.1867  -2.2315  -2.2760  -2.3201  -2.3638  -2.4070  -2.4498  -2.4922  -2.5341  -2.5754  -2.6161  -2.6563  -2.6958  -2.7347  -2.7729  -2.8104  -2.8479  -2.8848  -2.9209  -2.9562  -2.9908  -3.0245  -3.0573  -3.0892  -3.1200  -3.1507  -3.1802  -3.2084  -3.2351  -3.2601  -3.2832  -3.3044  -3.3232  -3.3398  -3.3537  -3.3642  -3.3709  -3.3738  -3.3724  -3.3666  -3.3559  -3.3402  -3.3189  -3.2919  -3.2592  -3.2207  -3.1765  -3.1262  -3.0706  -3.0100  -2.9448  -2.8754  -2.8020  -2.7251  -2.6457  -2.5642  -2.4812  -2.3971  -2.3120  -2.2268  -2.1418  -2.0572  -1.9732  -1.8901  -1.8079  -1.7268  -1.6469  -1.5681  -1.4904  -1.4142  -1.3394  -1.2658  -1.1933  -1.1219  -1.0515  -0.9821  -0.9144  -0.8476  -0.7818  -0.7168  -0.6525  -0.5890  -0.5261  -0.4640  -0.4025  -0.3415  -0.2809  -0.2207
3.640  -2.2134  -2.2585  -2.3033  -2.3478  -2.3919  -2.4357  -2.4790  -2.5218  -2.5641  -2.6059  -2.6471  -2.6878  -2.7278  -2.7674  -2.8064  -2.8448  -2.8824  -2.9194  -2.9557  -2.9912  -3.0259  -3.0599  -3.0935  -3.1265  -3.1585  -3.1897  -3.2198  -3.2488  -3.2765  -3.3029  -3.3280  -3.3520  -3.3742  -3.3943  -3.4122  -3.4276  -3.4401  -3.4496  -3.4557  -3.4581  -3.4564  -3.4500  -3.4388  -3.4224  -3.4008  -3.3739  -3.3414  -3.3032  -3.2594  -3.2102  -3.1556  -3.0958  -3.0315  -2.9632  -2.8913  -2.8163  -2.7385  -2.6587  -2.5774  -2.4952  -2.4124  -2.3295  -2.2469  -2.1648  -2.0833  -2.0026  -1.9229  -1.8446  -1.7675  -1.6916  -1.6168  -1.5432  -1.4707  -1.3995  -1.3295  -1.2607  -1.1929  -1.1262  -1.0603  -0.9954  -0.9315  -0.8684  -0.8060  -0.7441  -0.6828  -0.6220  -0.5615  -0.5015  -0.4419  -0.3827  -0.3237
3.630  -2.3775  -2.4219  -2.4659  -2.5095  -2.5526  -2.5952  -2.6373  -2.6788  -2.7200  -2.7605  -2.8004  -2.8397  -2.8784  -2.9164  -2.9538  -2.9904  -3.0265  -3.0620  -3.0969  -3.1310  -3.1643  -3.1968  -3.2285  -3.2593  -3.2891  -3.3181  -3.3460  -3.3727  -3.3981  -3.4219  -3.4441  -3.4644  -3.4827  -3.4991  -3.5130  -3.5241  -3.5322  -3.5370  -3.5381  -3.5353  -3.5284  -3.5168  -3.5004  -3.4789  -3.4521  -3.4200  -3.3824  -3.3395  -3.2914  -3.2383  -3.1805  -3.1180  -3.0514  -2.9813  -2.9083  -2.8327  -2.7553  -2.6767  -2.5973  -2.5174  -2.4375  -2.3578  -2.2788  -2.2004  -2.1230  -2.0466  -1.9712  -1.8969  -1.8236  -1.7514  -1.6803  -1.6103  -1.5414  -1.4735  -1.4066  -1.3406  -1.2756  -1.2113  -1.1479  -1.0852  -1.0231  -0.9616  -0.9006  -0.8399  -0.7796  -0.7196  -0.6598  -0.6003  -0.5409  -0.4818  -0.4230
3.620  -2.5413  -2.5845  -2.6273  -2.6696  -2.7114  -2.7525  -2.7932  -2.8332  -2.8725  -2.9113  -2.9494  -2.9870  -3.0240  -3.0604  -3.0961  -3.1311  -3.1654  -3.1990  -3.2319  -3.2640  -3.2955  -3.3261  -3.3558  -3.3845  -3.4120  -3.4384  -3.4634  -3.4871  -3.5093  -3.5298  -3.5484  -3.5648  -3.5790  -3.5907  -3.5997  -3.6058  -3.6087  -3.6082  -3.6039  -3.5956  -3.5830  -3.5659  -3.5441  -3.5173  -3.4854  -3.4483  -3.4064  -3.3597  -3.3084  -3.2525  -3.1925  -3.1287  -3.0615  -2.9916  -2.9193  -2.8453  -2.7699  -2.6939  -2.6175  -2.5411  -2.4649  -2.3893  -2.3143  -2.2402  -2.1670  -2.0947  -2.0233  -1.9529  -1.8835  -1.8150  -1.7476  -1.6810  -1.6154  -1.5506  -1.4867  -1.4235  -1.3610  -1.2991  -1.2377  -1.1767  -1.1162  -1.0559  -0.9958  -0.9359  -0.8761  -0.8163  -0.7565  -0.6967  -0.6369  -0.5772  -0.5175
3.610  -2.7056  -2.7474  -2.7886  -2.8292  -2.8692  -2.9086  -2.9475  -2.9858  -3.0234  -3.0603  -3.0967  -3.1323  -3.1673  -3.2017  -3.2355  -3.2687  -3.3011  -3.3328  -3.3637  -3.3938  -3.4229  -3.4510  -3.4781  -3.5040  -3.5287  -3.5519  -3.5736  -3.5936  -3.6117  -3.6278  -3.6418  -3.6535  -3.6627  -3.6692  -3.6729  -3.6735  -3.6709  -3.6648  -3.6550  -3.6413  -3.6235  -3.6015  -3.5750  -3.5439  -3.5082  -3.4678  -3.4228  -3.3736  -3.3203  -3.2631  -3.2025  -3.1388  -3.0725  -3.0041  -2.9340  -2.8628  -2.7906  -2.7182  -2.6460  -2.5739  -2.5023  -2.4311  -2.3606  -2.2908  -2.2218  -2.1536  -2.0862  -2.0196  -1.9539  -1.8888  -1.8246  -1.7612  -1.6984  -1.6363  -1.5748  -1.5138  -1.4533  -1.3930  -1.3331  -1.2732  -1.2135  -1.1538  -1.0940  -1.0341  -0.9740  -0.9138  -0.8533  -0.7926  -0.7316  -0.6705  -0.6093
3.600  -2.8716  -2.9117  -2.9513  -2.9901  -3.0284  -3.0660  -3.1030  -3.1393  -3.1750  -3.2101  -3.2446  -3.2784  -3.3115  -3.3440  -3.3758  -3.4068  -3.4371  -3.4664  -3.4948  -3.5222  -3.5485  -3.5736  -3.5973  -3.6196  -3.6404  -3.6594  -3.6766  -3.6918  -3.7050  -3.7160  -3.7246  -3.7308  -3.7344  -3.7353  -3.7335  -3.7286  -3.7207  -3.7095  -3.6948  -3.6766  -3.6545  -3.6285  -3.5983  -3.5640  -3.5255  -3.4828  -3.4362  -3.3858  -3.3319  -3.2750  -3.2154  -3.1535  -3.0898  -3.0246  -2.9585  -2.8918  -2.8247  -2.7575  -2.6904  -2.6235  -2.5570  -2.4909  -2.4252  -2.3601  -2.2954  -2.2314  -2.1679  -2.1049  -2.0426  -1.9808  -1.9196  -1.8588  -1.7985  -1.7386  -1.6791  -1.6197  -1.5606  -1.5014  -1.4423  -1.3830  -1.3235  -1.2638  -1.2037  -1.1432  -1.0823  -1.0210  -0.9592  -0.8969  -0.8343  -0.7714  -0.7082
3.590  -3.0254  -3.0630  -3.0999  -3.1362  -3.1718  -3.2067  -3.2411  -3.2748  -3.3078  -3.3403  -3.3720  -3.4031  -3.4335  -3.4631  -3.4918  -3.5196  -3.5465  -3.5722  -3.5968  -3.6201  -3.6421  -3.6626  -3.6815  -3.6987  -3.7141  -3.7276  -3.7392  -3.7487  -3.7561  -3.7614  -3.7644  -3.7651  -3.7635  -3.7595  -3.7530  -3.7439  -3.7320  -3.7172  -3.6994  -3.6783  -3.6538  -3.6258  -3.5941  -3.5586  -3.5195  -3.4767  -3.4306  -3.3814  -3.3293  -3.2748  -3.2183  -3.1601  -3.1005  -3.0400  -2.9788  -2.9172  -2.8552  -2.7931  -2.7310  -2.6690  -2.6071  -2.5454  -2.4839  -2.4226  -2.3617  -2.3011  -2.2409  -2.1810  -2.1214  -2.0622  -2.0033  -1.9446  -1.8861  -1.8277  -1.7693  -1.7108  -1.6521  -1.5932  -1.5339  -1.4742  -1.4139  -1.3530  -1.2914  -1.2291  -1.1661  -1.1022  -1.0376  -0.9722  -0.9063  -0.8400  -0.7734
3.580  -3.1716  -3.2063  -3.2404  -3.2738  -3.3067  -3.3389  -3.3705  -3.4014  -3.4317  -3.4613  -3.4901  -3.5181  -3.5452  -3.5713  -3.5964  -3.6203  -3.6430  -3.6643  -3.6843  -3.7027  -3.7195  -3.7347  -3.7481  -3.7597  -3.7694  -3.7773  -3.7833  -3.7873  -3.7894  -3.7896  -3.7878  -3.7840  -3.7783  -3.7705  -3.7605  -3.7482  -3.7336  -3.7164  -3.6965  -3.6737  -3.6479  -3.6189  -3.5868  -3.5514  -3.5129  -3.4715  -3.4274  -3.3807  -3.3320  -3.2814  -3.2293  -3.1759  -3.1215  -3.0664  -3.0106  -2.9543  -2.8977  -2.8407  -2.7835  -2.7261  -2.6686  -2.6110  -2.5533  -2.4957  -2.4381  -2.3805  -2.3231  -2.2657  -2.2085  -2.1512  -2.0940  -2.0367  -1.9792  -1.9215  -1.8634  -1.8050  -1.7459  -1.6862  -1.6258  -1.5645  -1.5023  -1.4391  -1.3747  -1.3093  -1.2427  -1.1750  -1.1062  -1.0366  -0.9665  -0.8960  -0.8256
3.570  -3.3082  -3.3400  -3.3713  -3.4019  -3.4320  -3.4614  -3.4900  -3.5180  -3.5451  -3.5714  -3.5967  -3.6210  -3.6441  -3.6660  -3.6866  -3.7058  -3.7236  -3.7398  -3.7544  -3.7674  -3.7786  -3.7882  -3.7961  -3.8022  -3.8066  -3.8093  -3.8104  -3.8098  -3.8076  -3.8038  -3.7984  -3.7913  -3.7826  -3.7721  -3.7598  -3.7455  -3.7292  -3.7106  -3.6896  -3.6662  -3.6402  -3.6115  -3.5802  -3.5464  -3.5101  -3.4715  -3.4308  -3.3882  -3.3440  -3.2984  -3.2516  -3.2037  -3.1549  -3.1054  -3.0551  -3.0042  -2.9526  -2.9005  -2.8479  -2.7947  -2.7412  -2.6872  -2.6330  -2.5784  -2.5237  -2.4687  -2.4135  -2.3580  -2.3023  -2.2464  -2.1900  -2.1332  -2.0758  -2.0179  -1.9591  -1.8995  -1.8389  -1.7773  -1.7144  -1.6502  -1.5846  -1.5175  -1.4488  -1.3787  -1.3072  -1.2344  -1.1605  -1.0860  -1.0112  -0.9366  -0.8628
3.560  -3.4344  -3.4634  -3.4918  -3.5196  -3.5466  -3.5729  -3.5982  -3.6226  -3.6460  -3.6682  -3.6892  -3.7089  -3.7273  -3.7442  -3.7596  -3.7735  -3.7859  -3.7966  -3.8058  -3.8133  -3.8193  -3.8237  -3.8266  -3.8280  -3.8280  -3.8267  -3.8239  -3.8199  -3.8146  -3.8080  -3.8000  -3.7908  -3.7801  -3.7680  -3.7543  -3.7390  -3.7219  -3.7030  -3.6822  -3.6594  -3.6345  -3.6077  -3.5788  -3.5480  -3.5154  -3.4809  -3.4449  -3.4074  -3.3685  -3.3284  -3.2872  -3.2449  -3.2017  -3.1575  -3.1124  -3.0665  -3.0196  -2.9719  -2.9233  -2.8740  -2.8239  -2.7732  -2.7218  -2.6698  -2.6172  -2.5641  -2.5103  -2.4560  -2.4010  -2.3453  -2.2888  -2.2314  -2.1731  -2.1136  -2.0528  -1.9907  -1.9271  -1.8619  -1.7949  -1.7261  -1.6554  -1.5828  -1.5084  -1.4323  -1.3548  -1.2762  -1.1970  -1.1176  -1.0387  -0.9610  -0.8851
3.550  -3.5497  -3.5758  -3.6011  -3.6254  -3.6489  -3.6712  -3.6925  -3.7125  -3.7312  -3.7486  -3.7646  -3.7792  -3.7922  -3.8038  -3.8139  -3.8225  -3.8296  -3.8352  -3.8394  -3.8422  -3.8437  -3.8439  -3.8429  -3.8408  -3.8375  -3.8332  -3.8279  -3.8215  -3.8141  -3.8057  -3.7962  -3.7857  -3.7740  -3.7612  -3.7472  -3.7320  -3.7155  -3.6976  -3.6783  -3.6577  -3.6356  -3.6121  -3.5870  -3.5606  -3.5326  -3.5032  -3.4724  -3.4403  -3.4069  -3.3723  -3.3365  -3.2996  -3.2615  -3.2223  -3.1819  -3.1404  -3.0977  -3.0538  -3.0088  -2.9627  -2.9155  -2.8673  -2.8181  -2.7679  -2.7167  -2.6646  -2.6114  -2.5571  -2.5017  -2.4450  -2.3871  -2.3277  -2.2668  -2.2043  -2.1399  -2.0736  -2.0052  -1.9346  -1.8617  -1.7866  -1.7093  -1.6299  -1.5487  -1.4661  -1.3824  -1.2984  -1.2144  -1.1314  -1.0500  -0.9708  -0.8947
3.540  -3.6529  -3.6753  -3.6966  -3.7168  -3.7358  -3.7534  -3.7698  -3.7848  -3.7983  -3.8105  -3.8212  -3.8305  -3.8385  -3.8450  -3.8501  -3.8540  -3.8566  -3.8579  -3.8582  -3.8573  -3.8555  -3.8527  -3.8489  -3.8444  -3.8389  -3.8327  -3.8257  -3.8179  -3.8094  -3.8001  -3.7901  -3.7793  -3.7678  -3.7556  -3.7426  -3.7288  -3.7143  -3.6990  -3.6829  -3.6658  -3.6477  -3.6286  -3.6083  -3.5868  -3.5640  -3.5399  -3.5144  -3.4875  -3.4593  -3.4298  -3.3990  -3.3668  -3.3333  -3.2984  -3.2622  -3.2245  -3.1853  -3.1447  -3.1027  -3.0592  -3.0142  -2.9677  -2.9198  -2.8704  -2.8196  -2.7672  -2.7132  -2.6576  -2.6004  -2.5413  -2.4803  -2.4173  -2.3522  -2.2847  -2.2148  -2.1423  -2.0672  -1.9895  -1.9092  -1.8265  -1.7416  -1.6549  -1.5670  -1.4783  -1.3894  -1.3012  -1.2143  -1.1295  -1.0477  -0.9694  -0.8952
3.530  -3.7411  -3.7589  -3.7754  -3.7907  -3.8045  -3.8171  -3.8283  -3.8381  -3.8466  -3.8538  -3.8597  -3.8643  -3.8677  -3.8700  -3.8711  -3.8713  -3.8704  -3.8687  -3.8661  -3.8627  -3.8586  -3.8538  -3.8484  -3.8423  -3.8356  -3.8284  -3.8207  -3.8125  -3.8038  -3.7948  -3.7854  -3.7757  -3.7657  -3.7554  -3.7449  -3.7342  -3.7231  -3.7116  -3.6997  -3.6871  -3.6738  -3.6596  -3.6442  -3.6277  -3.6099  -3.5907  -3.5701  -3.5480  -3.5245  -3.4995  -3.4730  -3.4450  -3.4155  -3.3844  -3.3516  -3.3172  -3.2810  -3.2429  -3.2030  -3.1611  -3.1173  -3.0715  -3.0237  -2.9738  -2.9219  -2.8679  -2.8117  -2.7532  -2.6924  -2.6291  -2.5633  -2.4947  -2.4232  -2.3488  -2.2713  -2.1909  -2.1075  -2.0214  -1.9329  -1.8423  -1.7501  -1.6569  -1.5633  -1.4699  -1.3777  -1.2874  -1.1999  -1.1159  -1.0361  -0.9610  -0.8910
3.520  -3.8111  -3.8239  -3.8353  -3.8455  -3.8544  -3.8621  -3.8685  -3.8737  -3.8777  -3.8807  -3.8825  -3.8834  -3.8834  -3.8825  -3.8808  -3.8783  -3.8752  -3.8714  -3.8670  -3.8620  -3.8566  -3.8507  -3.8444  -3.8378  -3.8308  -3.8236  -3.8163  -3.8088  -3.8013  -3.7939  -3.7866  -3.7793  -3.7723  -3.7654  -3.7587  -3.7520  -3.7452  -3.7383  -3.7310  -3.7232  -3.7146  -3.7051  -3.6945  -3.6826  -3.6693  -3.6545  -3.6382  -3.6203  -3.6008  -3.5797  -3.5570  -3.5326  -3.5064  -3.4784  -3.4484  -3.4164  -3.3822  -3.3456  -3.3067  -3.2654  -3.2214  -3.1749  -3.1258  -3.0740  -3.0195  -2.9622  -2.9020  -2.8387  -2.7724  -2.7027  -2.6297  -2.5533  -2.4734  -2.3902  -2.3037  -2.2143  -2.1222  -2.0278  -1.9315  -1.8339  -1.7356  -1.6373  -1.5399  -1.4442  -1.3511  -1.2614  -1.1759  -1.0953  -1.0200  -0.9503  -0.8864
3.510  -3.8622  -3.8701  -3.8769  -3.8825  -3.8870  -3.8905  -3.8929  -3.8944  -3.8950  -3.8947  -3.8937  -3.8920  -3.8896  -3.8866  -3.8830  -3.8789  -3.8744  -3.8694  -3.8641  -3.8585  -3.8527  -3.8467  -3.8406  -3.8345  -3.8284  -3.8226  -3.8169  -3.8116  -3.8067  -3.8022  -3.7982  -3.7947  -3.7916  -3.7889  -3.7866  -3.7844  -3.7821  -3.7798  -3.7770  -3.7736  -3.7693  -3.7641  -3.7576  -3.7498  -3.7404  -3.7295  -3.7169  -3.7027  -3.6867  -3.6689  -3.6492  -3.6277  -3.6040  -3.5782  -3.5500  -3.5193  -3.4858  -3.4496  -3.4104  -3.3682  -3.3228  -3.2742  -3.2222  -3.1668  -3.1078  -3.0451  -2.9786  -2.9082  -2.8337  -2.7553  -2.6730  -2.5870  -2.4974  -2.4047  -2.3091  -2.2110  -2.1108  -2.0090  -1.9063  -1.8032  -1.7007  -1.5997  -1.5010  -1.4057  -1.3146  -1.2284  -1.1477  -1.0729  -1.0042  -0.9415  -0.8849
3.500  -3.8959  -3.8997  -3.9026  -3.9045  -3.9056  -3.9059  -3.9054  -3.9043  -3.9025  -3.9001  -3.8972  -3.8939  -3.8901  -3.8859  -3.8814  -3.8766  -3.8716  -3.8664  -3.8612  -3.8560  -3.8509  -3.8460  -3.8413  -3.8371  -3.8333  -3.8301  -3.8275  -3.8255  -3.8243  -3.8237  -3.8238  -3.8246  -3.8259  -3.8276  -3.8295  -3.8316  -3.8336  -3.8353  -3.8365  -3.8371  -3.8367  -3.8351  -3.8323  -3.8281  -3.8222  -3.8146  -3.8052  -3.7939  -3.7807  -3.7654  -3.7480  -3.7282  -3.7060  -3.6812  -3.6536  -3.6230  -3.5892  -3.5520  -3.5112  -3.4667  -3.4182  -3.3657  -3.3087  -3.2473  -3.1812  -3.1103  -3.0347  -2.9545  -2.8699  -2.7811  -2.6885  -2.5926  -2.4936  -2.3919  -2.2879  -2.1821  -2.0751  -1.9674  -1.8600  -1.7537  -1.6497  -1.5488  -1.4521  -1.3603  -1.2742  -1.1942  -1.1205  -1.0534  -0.9926  -0.9380  -0.8892
3.490  -3.9151  -3.9157  -3.9156  -3.9149  -3.9136  -3.9117  -3.9093  -3.9064  -3.9031  -3.8994  -3.8954  -3.8912  -3.8867  -3.8821  -3.8774  -3.8727  -3.8682  -3.8638  -3.8597  -3.8559  -3.8526  -3.8499  -3.8479  -3.8465  -3.8459  -3.8462  -3.8473  -3.8493  -3.8520  -3.8556  -3.8598  -3.8645  -3.8698  -3.8753  -3.8811  -3.8868  -3.8924  -3.8976  -3.9022  -3.9061  -3.9090  -3.9106  -3.9108  -3.9094  -3.9063  -3.9011  -3.8939  -3.8845  -3.8728  -3.8587  -3.8421  -3.8228  -3.8006  -3.7755  -3.7471  -3.7153  -3.6797  -3.6401  -3.5961  -3.5474  -3.4937  -3.4346  -3.3699  -3.2995  -3.2235  -3.1421  -3.0555  -2.9642  -2.8688  -2.7696  -2.6672  -2.5619  -2.4541  -2.3443  -2.2329  -2.1207  -2.0084  -1.8971  -1.7878  -1.6815  -1.5794  -1.4824  -1.3911  -1.3061  -1.2278  -1.1562  -1.0915  -1.0332  -0.9812  -0.9350  -0.8941
3.480  -3.9236  -3.9221  -3.9201  -3.9176  -3.9147  -3.9115  -3.9079  -3.9041  -3.9001  -3.8959  -3.8917  -3.8874  -3.8833  -3.8793  -3.8755  -3.8721  -3.8691  -3.8667  -3.8649  -3.8638  -3.8634  -3.8640  -3.8654  -3.8677  -3.8710  -3.8752  -3.8803  -3.8861  -3.8928  -3.9001  -3.9079  -3.9163  -3.9250  -3.9339  -3.9429  -3.9519  -3.9607  -3.9690  -3.9766  -3.9833  -3.9889  -3.9930  -3.9954  -3.9960  -3.9944  -3.9906  -3.9843  -3.9755  -3.9640  -3.9498  -3.9327  -3.9126  -3.8894  -3.8628  -3.8324  -3.7979  -3.7588  -3.7146  -3.6649  -3.6091  -3.5468  -3.4778  -3.4022  -3.3202  -3.2322  -3.1389  -3.0409  -2.9388  -2.8331  -2.7243  -2.6129  -2.4992  -2.3837  -2.2671  -2.1503  -2.0342  -1.9200  -1.8087  -1.7015  -1.5994  -1.5031  -1.4133  -1.3304  -1.2546  -1.1859  -1.1241  -1.0689  -1.0200  -0.9768  -0.9387  -0.9053
3.470  -3.9252  -3.9223  -3.9191  -3.9157  -3.9121  -3.9083  -3.9044  -3.9005  -3.8967  -3.8931  -3.8896  -3.8865  -3.8837  -3.8814  -3.8797  -3.8787  -3.8784  -3.8790  -3.8804  -3.8828  -3.8861  -3.8904  -3.8957  -3.9019  -3.9090  -3.9168  -3.9255  -3.9349  -3.9449  -3.9555  -3.9665  -3.9780  -3.9898  -4.0018  -4.0138  -4.0256  -4.0370  -4.0478  -4.0578  -4.0665  -4.0738  -4.0793  -4.0828  -4.0840  -4.0828  -4.0788  -4.0722  -4.0626  -4.0502  -4.0347  -4.0161  -3.9941  -3.9685  -3.9388  -3.9046  -3.8652  -3.8199  -3.7680  -3.7090  -3.6423  -3.5680  -3.4863  -3.3978  -3.3030  -3.2029  -3.0982  -2.9896  -2.8777  -2.7628  -2.6455  -2.5262  -2.4056  -2.2845  -2.1640  -2.0452  -1.9292  -1.8173  -1.7104  -1.6095  -1.5151  -1.4278  -1.3479  -1.2753  -1.2100  -1.1517  -1.1000  -1.0545  -1.0145  -0.9795  -0.9490  -0.9222
3.460  -3.9228  -3.9194  -3.9159  -3.9123  -3.9088  -3.9054  -3.9023  -3.8993  -3.8968  -3.8947  -3.8931  -3.8921  -3.8919  -3.8924  -3.8937  -3.8959  -3.8992  -3.9033  -3.9085  -3.9146  -3.9217  -3.9296  -3.9385  -3.9481  -3.9585  -3.9696  -3.9814  -3.9938  -4.0068  -4.0204  -4.0344  -4.0487  -4.0632  -4.0778  -4.0921  -4.1061  -4.1194  -4.1318  -4.1429  -4.1525  -4.1602  -4.1657  -4.1688  -4.1693  -4.1670  -4.1617  -4.1534  -4.1420  -4.1275  -4.1095  -4.0881  -4.0627  -4.0330  -3.9981  -3.9573  -3.9097  -3.8543  -3.7907  -3.7186  -3.6382  -3.5498  -3.4545  -3.3531  -3.2464  -3.1354  -3.0206  -2.9027  -2.7820  -2.6592  -2.5350  -2.4101  -2.2855  -2.1625  -2.0423  -1.9260  -1.8147  -1.7094  -1.6108  -1.5194  -1.4355  -1.3592  -1.2904  -1.2291  -1.1747  -1.1268  -1.0849  -1.0484  -1.0167  -0.9891  -0.9651  -0.9442
3.450  -3.9197  -3.9167  -3.9137  -3.9111  -3.9087  -3.9068  -3.9053  -3.9044  -3.9041  -3.9046  -3.9058  -3.9079  -3.9109  -3.9149  -3.9198  -3.9258  -3.9326  -3.9404  -3.9491  -3.9587  -3.9690  -3.9801  -3.9920  -4.0046  -4.0180  -4.0320  -4.0467  -4.0619  -4.0777  -4.0939  -4.1104  -4.1270  -4.1436  -4.1599  -4.1757  -4.1908  -4.2048  -4.2174  -4.2282  -4.2371  -4.2438  -4.2478  -4.2492  -4.2475  -4.2429  -4.2351  -4.2240  -4.2096  -4.1918  -4.1702  -4.1443  -4.1135  -4.0769  -4.0333  -3.9819  -3.9217  -3.8524  -3.7740  -3.6868  -3.5918  -3.4898  -3.3819  -3.2691  -3.1521  -3.0315  -2.9079  -2.7820  -2.6545  -2.5261  -2.3980  -2.2713  -2.1472  -2.0270  -1.9117  -1.8025  -1.6999  -1.6046  -1.5170  -1.4371  -1.3651  -1.3007  -1.2437  -1.1935  -1.1498  -1.1118  -1.0789  -1.0506  -1.0261  -1.0049  -0.9864  -0.9704
3.440  -3.9197  -3.9179  -3.9166  -3.9158  -3.9155  -3.9159  -3.9171  -3.9191  -3.9219  -3.9257  -3.9304  -3.9360  -3.9426  -3.9502  -3.9587  -3.9680  -3.9781  -3.9891  -4.0008  -4.0133  -4.0265  -4.0405  -4.0552  -4.0707  -4.0868  -4.1035  -4.1207  -4.1384  -4.1564  -4.1746  -4.1928  -4.2108  -4.2284  -4.2453  -4.2612  -4.2759  -4.2889  -4.3002  -4.3093  -4.3160  -4.3200  -4.3213  -4.3195  -4.3145  -4.3064  -4.2951  -4.2804  -4.2620  -4.2395  -4.2122  -4.1792  -4.1394  -4.0917  -4.0351  -3.9690  -3.8932  -3.8080  -3.7140  -3.6124  -3.5040  -3.3901  -3.2714  -3.1487  -3.0227  -2.8941  -2.7637  -2.6323  -2.5011  -2.3711  -2.2437  -2.1200  -2.0013  -1.8885  -1.7824  -1.6836  -1.5924  -1.5093  -1.4341  -1.3668  -1.3072  -1.2549  -1.2093  -1.1699  -1.1359  -1.1068  -1.0818  -1.0603  -1.0418  -1.0258  -1.0119  -0.9998
3.430  -3.9263  -3.9267  -3.9278  -3.9297  -3.9324  -3.9360  -3.9404  -3.9459  -3.9522  -3.9595  -3.9677  -3.9768  -3.9867  -3.9974  -4.0088  -4.0211  -4.0341  -4.0479  -4.0624  -4.0776  -4.0936  -4.1103  -4.1277  -4.1456  -4.1641  -4.1831  -4.2023  -4.2216  -4.2410  -4.2601  -4.2788  -4.2968  -4.3139  -4.3298  -4.3442  -4.3568  -4.3674  -4.3757  -4.3815  -4.3845  -4.3847  -4.3819  -4.3761  -4.3672  -4.3550  -4.3394  -4.3197  -4.2954  -4.2656  -4.2291  -4.1849  -4.1317  -4.0689  -3.9961  -3.9134  -3.8213  -3.7207  -3.6127  -3.4984  -3.3787  -3.2545  -3.1266  -2.9958  -2.8629  -2.7290  -2.5951  -2.4624  -2.3321  -2.2055  -2.0838  -1.9678  -1.8586  -1.7566  -1.6623  -1.5760  -1.4978  -1.4278  -1.3658  -1.3113  -1.2640  -1.2232  -1.1882  -1.1583  -1.1329  -1.1112  -1.0927  -1.0768  -1.0631  -1.0513  -1.0409  -1.0317
3.420  -3.9426  -3.9460  -3.9503  -3.9555  -3.9616  -3.9687  -3.9766  -3.9854  -3.9951  -4.0055  -4.0168  -4.0287  -4.0415  -4.0550  -4.0692  -4.0842  -4.0999  -4.1164  -4.1336  -4.1514  -4.1700  -4.1890  -4.2085  -4.2284  -4.2486  -4.2688  -4.2889  -4.3087  -4.3280  -4.3466  -4.3643  -4.3806  -4.3956  -4.4087  -4.4199  -4.4289  -4.4355  -4.4395  -4.4408  -4.4393  -4.4351  -4.4279  -4.4178  -4.4043  -4.3869  -4.3651  -4.3379  -4.3043  -4.2632  -4.2133  -4.1539  -4.0843  -4.0044  -3.9148  -3.8160  -3.7091  -3.5951  -3.4751  -3.3499  -3.2207  -3.0882  -2.9534  -2.8174  -2.6813  -2.5463  -2.4136  -2.2845  -2.1601  -2.0415  -1.9294  -1.8246  -1.7274  -1.6382  -1.5573  -1.4847  -1.4204  -1.3639  -1.3150  -1.2729  -1.2369  -1.2064  -1.1805  -1.1587  -1.1401  -1.1244  -1.1109  -1.0994  -1.0893  -1.0806  -1.0729  -1.0660
3.410  -3.9712  -3.9781  -3.9858  -3.9943  -4.0038  -4.0140  -4.0250  -4.0367  -4.0492  -4.0625  -4.0764  -4.0911  -4.1065  -4.1227  -4.1397  -4.1573  -4.1757  -4.1946  -4.2141  -4.2341  -4.2545  -4.2752  -4.2960  -4.3168  -4.3373  -4.3575  -4.3771  -4.3958  -4.4134  -4.4298  -4.4446  -4.4577  -4.4688  -4.4778  -4.4844  -4.4886  -4.4903  -4.4895  -4.4862  -4.4802  -4.4714  -4.4595  -4.4440  -4.4241  -4.3992  -4.3681  -4.3297  -4.2829  -4.2267  -4.1604  -4.0837  -3.9970  -3.9007  -3.7957  -3.6828  -3.5631  -3.4377  -3.3076  -3.1739  -3.0376  -2.8999  -2.7619  -2.6249  -2.4902  -2.3589  -2.2322  -2.1112  -1.9966  -1.8891  -1.7893  -1.6975  -1.6140  -1.5390  -1.4725  -1.4142  -1.3637  -1.3204  -1.2836  -1.2525  -1.2263  -1.2042  -1.1857  -1.1701  -1.1569  -1.1456  -1.1359  -1.1276  -1.1202  -1.1138  -1.1080  -1.1028
3.400  -4.0134  -4.0234  -4.0342  -4.0458  -4.0581  -4.0711  -4.0848  -4.0993  -4.1145  -4.1304  -4.1471  -4.1645  -4.1827  -4.2015  -4.2209  -4.2409  -4.2613  -4.2822  -4.3033  -4.3246  -4.3458  -4.3669  -4.3877  -4.4079  -4.4274  -4.4459  -4.4632  -4.4791  -4.4934  -4.5058  -4.5163  -4.5247  -4.5309  -4.5349  -4.5366  -4.5361  -4.5333  -4.5281  -4.5204  -4.5097  -4.4955  -4.4774  -4.4543  -4.4254  -4.3895  -4.3455  -4.2924  -4.2294  -4.1562  -4.0729  -3.9797  -3.8772  -3.7662  -3.6476  -3.5225  -3.3920  -3.2573  -3.1198  -2.9805  -2.8408  -2.7019  -2.5652  -2.4318  -2.3029  -2.1795  -2.0625  -1.9526  -1.8502  -1.7559  -1.6700  -1.5928  -1.5243  -1.4644  -1.4125  -1.3681  -1.3305  -1.2989  -1.2724  -1.2503  -1.2318  -1.2163  -1.2032  -1.1922  -1.1829  -1.1749  -1.1679  -1.1618  -1.1565  -1.1517  -1.1473  -1.1433
3.390  -4.0638  -4.0766  -4.0901  -4.1043  -4.1192  -4.1348  -4.1512  -4.1683  -4.1862  -4.2047  -4.2239  -4.2436  -4.2640  -4.2847  -4.3059  -4.3273  -4.3488  -4.3704  -4.3917  -4.4128  -4.4333  -4.4531  -4.4720  -4.4897  -4.5061  -4.5209  -4.5340  -4.5451  -4.5543  -4.5613  -4.5662  -4.5691  -4.5698  -4.5686  -4.5652  -4.5596  -4.5516  -4.5408  -4.5268  -4.5089  -4.4864  -4.4583  -4.4235  -4.3808  -4.3291  -4.2676  -4.1959  -4.1139  -4.0217  -3.9200  -3.8094  -3.6909  -3.5655  -3.4347  -3.2996  -3.1616  -3.0218  -2.8815  -2.7420  -2.6045  -2.4702  -2.3404  -2.2160  -2.0979  -1.9867  -1.8831  -1.7875  -1.7004  -1.6221  -1.5526  -1.4917  -1.4392  -1.3945  -1.3567  -1.3250  -1.2986  -1.2766  -1.2584  -1.2432  -1.2306  -1.2200  -1.2110  -1.2034  -1.1969  -1.1912  -1.1862  -1.1818  -1.1779  -1.1743  -1.1710  -1.1678
3.380  -4.1242  -4.1396  -4.1557  -4.1726  -4.1902  -4.2084  -4.2274  -4.2469  -4.2671  -4.2877  -4.3088  -4.3302  -4.3518  -4.3736  -4.3953  -4.4168  -4.4381  -4.4587  -4.4787  -4.4977  -4.5156  -4.5322  -4.5472  -4.5605  -4.5719  -4.5814  -4.5888  -4.5942  -4.5976  -4.5991  -4.5986  -4.5963  -4.5920  -4.5857  -4.5771  -4.5659  -4.5517  -4.5339  -4.5116  -4.4839  -4.4498  -4.4079  -4.3571  -4.2966  -4.2259  -4.1448  -4.0535  -3.9525  -3.8424  -3.7241  -3.5989  -3.4680  -3.3329  -3.1947  -3.0547  -2.9142  -2.7743  -2.6363  -2.5014  -2.3709  -2.2458  -2.1268  -2.0148  -1.9102  -1.8138  -1.7259  -1.6468  -1.5767  -1.5155  -1.4628  -1.4180  -1.3802  -1.3487  -1.3226  -1.3009  -1.2831  -1.2683  -1.2560  -1.2458  -1.2373  -1.2301  -1.2239  -1.2186  -1.2141  -1.2100  -1.2064  -1.2032  -1.2002  -1.1975  -1.1949  -1.1924
3.370  -4.1947  -4.2128  -4.2315  -4.2509  -4.2708  -4.2913  -4.3123  -4.3337  -4.3553  -4.3771  -4.3991  -4.4209  -4.4426  -4.4638  -4.4845  -4.5045  -4.5235  -4.5414  -4.5579  -4.5729  -4.5862  -4.5976  -4.6071  -4.6146  -4.6201  -4.6237  -4.6254  -4.6254  -4.6236  -4.6201  -4.6148  -4.6076  -4.5983  -4.5867  -4.5722  -4.5542  -4.5319  -4.5044  -4.4705  -4.4290  -4.3787  -4.3188  -4.2486  -4.1682  -4.0775  -3.9770  -3.8673  -3.7494  -3.6245  -3.4939  -3.3589  -3.2208  -3.0809  -2.9402  -2.8001  -2.6617  -2.5264  -2.3954  -2.2696  -2.1501  -2.0374  -1.9323  -1.8354  -1.7471  -1.6678  -1.5977  -1.5366  -1.4841  -1.4395  -1.4022  -1.3712  -1.3455  -1.3243  -1.3070  -1.2926  -1.2808  -1.2710  -1.2629  -1.2561  -1.2503  -1.2453  -1.2411  -1.2374  -1.2341  -1.2312  -1.2286  -1.2261  -1.2238  -1.2217  -1.2196  -1.2176
3.360  -4.2754  -4.2958  -4.3167  -4.3380  -4.3596  -4.3815  -4.4035  -4.4255  -4.4475  -4.4691  -4.4904  -4.5110  -4.5308  -4.5497  -4.5674  -4.5837  -4.5985  -4.6115  -4.6227  -4.6320  -4.6393  -4.6446  -4.6481  -4.6499  -4.6500  -4.6484  -4.6453  -4.6407  -4.6344  -4.6265  -4.6166  -4.6045  -4.5897  -4.5715  -4.5491  -4.5216  -4.4877  -4.4462  -4.3959  -4.3361  -4.2662  -4.1860  -4.0957  -3.9956  -3.8864  -3.7688  -3.6443  -3.5139  -3.3792  -3.2413  -3.1014  -2.9607  -2.8203  -2.6816  -2.5459  -2.4144  -2.2883  -2.1683  -2.0553  -1.9501  -1.8531  -1.7649  -1.6859  -1.6163  -1.5557  -1.5039  -1.4601  -1.4235  -1.3932  -1.3683  -1.3478  -1.3310  -1.3173  -1.3060  -1.2966  -1.2889  -1.2824  -1.2770  -1.2724  -1.2685  -1.2650  -1.2621  -1.2594  -1.2570  -1.2548  -1.2528  -1.2510  -1.2492  -1.2474  -1.2457  -1.2441
3.350  -4.3650  -4.3869  -4.4090  -4.4311  -4.4533  -4.4752  -4.4968  -4.5179  -4.5383  -4.5579  -4.5765  -4.5938  -4.6097  -4.6241  -4.6367  -4.6475  -4.6563  -4.6632  -4.6683  -4.6715  -4.6731  -4.6731  -4.6717  -4.6688  -4.6646  -4.6590  -4.6520  -4.6435  -4.6332  -4.6207  -4.6056  -4.5872  -4.5646  -4.5368  -4.5026  -4.4608  -4.4103  -4.3502  -4.2802  -4.2001  -4.1100  -4.0101  -3.9012  -3.7840  -3.6598  -3.5298  -3.3953  -3.2575  -3.1175  -2.9765  -2.8358  -2.6967  -2.5606  -2.4288  -2.3023  -2.1822  -2.0693  -1.9642  -1.8677  -1.7802  -1.7021  -1.6334  -1.5740  -1.5233  -1.4807  -1.4453  -1.4160  -1.3920  -1.3724  -1.3563  -1.3432  -1.3325  -1.3236  -1.3163  -1.3102  -1.3052  -1.3009  -1.2972  -1.2940  -1.2913  -1.2889  -1.2867  -1.2848  -1.2830  -1.2813  -1.2798  -1.2783  -1.2768  -1.2754  -1.2740  -1.2726
3.340  -4.4603  -4.4825  -4.5043  -4.5258  -4.5467  -4.5668  -4.5860  -4.6041  -4.6209  -4.6362  -4.6500  -4.6620  -4.6721  -4.6804  -4.6868  -4.6914  -4.6943  -4.6956  -4.6954  -4.6940  -4.6912  -4.6873  -4.6822  -4.6760  -4.6685  -4.6596  -4.6491  -4.6364  -4.6211  -4.6024  -4.5794  -4.5512  -4.5165  -4.4742  -4.4231  -4.3626  -4.2923  -4.2120  -4.1219  -4.0222  -3.9135  -3.7966  -3.6726  -3.5427  -3.4082  -3.2702  -3.1299  -2.9885  -2.8473  -2.7077  -2.5712  -2.4391  -2.3126  -2.1927  -2.0802  -1.9758  -1.8802  -1.7939  -1.7172  -1.6502  -1.5924  -1.5434  -1.5024  -1.4684  -1.4405  -1.4177  -1.3990  -1.3839  -1.3715  -1.3614  -1.3531  -1.3462  -1.3405  -1.3358  -1.3318  -1.3284  -1.3255  -1.3230  -1.3208  -1.3188  -1.3171  -1.3155  -1.3140  -1.3126  -1.3113  -1.3100  -1.3088  -1.3076  -1.3064  -1.3052  -1.3039
3.330  -4.5563  -4.5768  -4.5965  -4.6151  -4.6326  -4.6487  -4.6633  -4.6763  -4.6875  -4.6969  -4.7044  -4.7101  -4.7142  -4.7167  -4.7177  -4.7173  -4.7158  -4.7132  -4.7095  -4.7049  -4.6993  -4.6928  -4.6851  -4.6761  -4.6654  -4.6525  -4.6370  -4.6180  -4.5947  -4.5660  -4.5307  -4.4876  -4.4359  -4.3748  -4.3040  -4.2234  -4.1333  -4.0336  -3.9250  -3.8081  -3.6841  -3.5540  -3.4190  -3.2805  -3.1395  -2.9974  -2.8555  -2.7153  -2.5785  -2.4464  -2.3201  -2.2008  -2.0892  -1.9860  -1.8920  -1.8075  -1.7329  -1.6680  -1.6124  -1.5656  -1.5265  -1.4943  -1.4680  -1.4465  -1.4291  -1.4149  -1.4033  -1.3939  -1.3862  -1.3798  -1.3745  -1.3701  -1.3664  -1.3633  -1.3606  -1.3583  -1.3563  -1.3545  -1.3529  -1.3515  -1.3502  -1.3489  -1.3478  -1.3467  -1.3456  -1.3446  -1.3435  -1.3425  -1.3414  -1.3404  -1.3393
3.320  -4.6455  -4.6622  -4.6774  -4.6911  -4.7031  -4.7134  -4.7219  -4.7286  -4.7337  -4.7371  -4.7391  -4.7398  -4.7393  -4.7378  -4.7353  -4.7319  -4.7278  -4.7229  -4.7172  -4.7106  -4.7029  -4.6939  -4.6832  -4.6704  -4.6548  -4.6356  -4.6118  -4.5826  -4.5466  -4.5028  -4.4503  -4.3886  -4.3173  -4.2365  -4.1462  -4.0465  -3.9377  -3.8206  -3.6960  -3.5652  -3.4294  -3.2898  -3.1477  -3.0045  -2.8618  -2.7212  -2.5842  -2.4523  -2.3267  -2.2084  -2.0982  -1.9968  -1.9050  -1.8230  -1.7510  -1.6888  -1.6359  -1.5916  -1.5549  -1.5248  -1.5003  -1.4804  -1.4642  -1.4511  -1.4404  -1.4317  -1.4246  -1.4187  -1.4138  -1.4097  -1.4063  -1.4034  -1.4010  -1.3989  -1.3970  -1.3954  -1.3940  -1.3927  -1.3915  -1.3904  -1.3894  -1.3884  -1.3875  -1.3866  -1.3857  -1.3848  -1.3839  -1.3830  -1.3820  -1.3811  -1.3801
3.310  -4.7200  -4.7309  -4.7401  -4.7476  -4.7535  -4.7578  -4.7607  -4.7623  -4.7628  -4.7622  -4.7607  -4.7584  -4.7555  -4.7519  -4.7477  -4.7429  -4.7373  -4.7310  -4.7236  -4.7149  -4.7045  -4.6919  -4.6763  -4.6570  -4.6331  -4.6034  -4.5668  -4.5224  -4.4693  -4.4070  -4.3354  -4.2544  -4.1639  -4.0638  -3.9546  -3.8366  -3.7110  -3.5789  -3.4416  -3.3005  -3.1569  -3.0126  -2.8690  -2.7280  -2.5911  -2.4598  -2.3353  -2.2185  -2.1103  -2.0114  -1.9223  -1.8433  -1.7745  -1.7156  -1.6658  -1.6245  -1.5904  -1.5626  -1.5401  -1.5218  -1.5070  -1.4950  -1.4852  -1.4773  -1.4708  -1.4654  -1.4609  -1.4572  -1.4541  -1.4515  -1.4492  -1.4473  -1.4456  -1.4441  -1.4428  -1.4416  -1.4405  -1.4396  -1.4387  -1.4378  -1.4370  -1.4362  -1.4354  -1.4346  -1.4338  -1.4330  -1.4322  -1.4314  -1.4305  -1.4296  -1.4287
3.300  -4.7755  -4.7805  -4.7842  -4.7866  -4.7879  -4.7883  -4.7878  -4.7865  -4.7847  -4.7823  -4.7794  -4.7760  -4.7721  -4.7678  -4.7629  -4.7572  -4.7506  -4.7426  -4.7329  -4.7207  -4.7056  -4.6866  -4.6627  -4.6329  -4.5961  -4.5514  -4.4979  -4.4355  -4.3637  -4.2825  -4.1916  -4.0910  -3.9807  -3.8614  -3.7341  -3.6001  -3.4609  -3.3180  -3.1730  -3.0275  -2.8834  -2.7423  -2.6059  -2.4756  -2.3526  -2.2378  -2.1321  -2.0362  -1.9504  -1.8750  -1.8099  -1.7546  -1.7084  -1.6702  -1.6390  -1.6136  -1.5932  -1.5766  -1.5632  -1.5524  -1.5436  -1.5364  -1.5305  -1.5256  -1.5215  -1.5182  -1.5153  -1.5129  -1.5108  -1.5090  -1.5075  -1.5061  -1.5049  -1.5039  -1.5029  -1.5020  -1.5012  -1.5004  -1.4996  -1.4989  -1.4982  -1.4974  -1.4967  -1.4960  -1.4953  -1.4945  -1.4937  -1.4929  -1.4920  -1.4911  -1.4901
3.290  -4.8032  -4.8039  -4.8037  -4.8029  -4.8014  -4.7994  -4.7970  -4.7941  -4.7909  -4.7872  -4.7832  -4.7788  -4.7739  -4.7681  -4.7613  -4.7530  -4.7427  -4.7297  -4.7133  -4.6926  -4.6666  -4.6343  -4.5945  -4.5464  -4.4895  -4.4235  -4.3481  -4.2631  -4.1683  -4.0636  -3.9495  -3.8265  -3.6960  -3.5593  -3.4180  -3.2736  -3.1278  -2.9822  -2.8388  -2.6992  -2.5650  -2.4376  -2.3181  -2.2073  -2.1061  -2.0149  -1.9341  -1.8639  -1.8038  -1.7533  -1.7115  -1.6773  -1.6494  -1.6270  -1.6088  -1.5942  -1.5824  -1.5728  -1.5650  -1.5587  -1.5534  -1.5491  -1.5455  -1.5425  -1.5400  -1.5378  -1.5360  -1.5344  -1.5330  -1.5318  -1.5307  -1.5298  -1.5289  -1.5281  -1.5274  -1.5267  -1.5261  -1.5254  -1.5248  -1.5242  -1.5236  -1.5230  -1.5224  -1.5218  -1.5211  -1.5204  -1.5197  -1.5190  -1.5182  -1.5173  -1.5164
3.280  -4.8173  -4.8157  -4.8137  -4.8112  -4.8084  -4.8053  -4.8020  -4.7984  -4.7945  -4.7902  -4.7853  -4.7796  -4.7725  -4.7637  -4.7526  -4.7384  -4.7205  -4.6978  -4.6692  -4.6338  -4.5905  -4.5387  -4.4778  -4.4076  -4.3279  -4.2383  -4.1388  -4.0295  -3.9107  -3.7837  -3.6496  -3.5102  -3.3668  -3.2211  -3.0748  -2.9297  -2.7876  -2.6503  -2.5192  -2.3956  -2.2804  -2.1746  -2.0786  -1.9930  -1.9181  -1.8536  -1.7992  -1.7540  -1.7168  -1.6867  -1.6623  -1.6427  -1.6269  -1.6142  -1.6039  -1.5956  -1.5888  -1.5832  -1.5786  -1.5748  -1.5716  -1.5690  -1.5667  -1.5648  -1.5632  -1.5618  -1.5605  -1.5595  -1.5585  -1.5577  -1.5569  -1.5562  -1.5556  -1.5550  -1.5545  -1.5539  -1.5534  -1.5529  -1.5524  -1.5519  -1.5514  -1.5509  -1.5504  -1.5498  -1.5492  -1.5486  -1.5480  -1.5473  -1.5465  -1.5457  -1.5449
3.270  -4.8251  -4.8225  -4.8196  -4.8166  -4.8134  -4.8101  -4.8065  -4.8025  -4.7978  -4.7919  -4.7845  -4.7750  -4.7628  -4.7472  -4.7273  -4.7021  -4.6705  -4.6314  -4.5840  -4.5277  -4.4622  -4.3871  -4.3022  -4.2073  -4.1023  -3.9875  -3.8637  -3.7323  -3.5947  -3.4526  -3.3074  -3.1608  -3.0146  -2.8707  -2.7309  -2.5968  -2.4698  -2.3509  -2.2411  -2.1410  -2.0512  -1.9721  -1.9037  -1.8457  -1.7974  -1.7576  -1.7253  -1.6992  -1.6783  -1.6615  -1.6479  -1.6370  -1.6282  -1.6211  -1.6152  -1.6104  -1.6064  -1.6031  -1.6003  -1.5980  -1.5960  -1.5944  -1.5929  -1.5917  -1.5906  -1.5897  -1.5888  -1.5881  -1.5874  -1.5868  -1.5863  -1.5858  -1.5853  -1.5848  -1.5844  -1.5840  -1.5836  -1.5832  -1.5827  -1.5823  -1.5819  -1.5814  -1.5809  -1.5804  -1.5799  -1.5793  -1.5787  -1.5781  -1.5774  -1.5767  -1.5759
3.260  -4.8313  -4.8287  -4.8261  -4.8233  -4.8202  -4.8164  -4.8117  -4.8056  -4.7977  -4.7872  -4.7737  -4.7563  -4.7339  -4.7056  -4.6702  -4.6267  -4.5744  -4.5129  -4.4418  -4.3610  -4.2700  -4.1688  -4.0576  -3.9369  -3.8079  -3.6722  -3.5313  -3.3867  -3.2402  -3.0934  -2.9482  -2.8065  -2.6701  -2.5403  -2.4184  -2.3052  -2.2016  -2.1082  -2.0255  -1.9537  -1.8927  -1.8416  -1.7997  -1.7655  -1.7380  -1.7159  -1.6982  -1.6841  -1.6727  -1.6635  -1.6560  -1.6499  -1.6450  -1.6409  -1.6374  -1.6346  -1.6322  -1.6302  -1.6285  -1.6270  -1.6257  -1.6247  -1.6237  -1.6229  -1.6222  -1.6215  -1.6209  -1.6204  -1.6199  -1.6195  -1.6191  -1.6187  -1.6183  -1.6180  -1.6177  -1.6173  -1.6170  -1.6166  -1.6163  -1.6159  -1.6155  -1.6151  -1.6147  -1.6142  -1.6137  -1.6132  -1.6126  -1.6120  -1.6114  -1.6106  -1.6099
3.250  -4.8409  -4.8387  -4.8360  -4.8325  -4.8277  -4.8212  -4.8124  -4.8008  -4.7855  -4.7657  -4.7402  -4.7078  -4.6676  -4.6187  -4.5606  -4.4930  -4.4155  -4.3279  -4.2300  -4.1218  -4.0039  -3.8772  -3.7432  -3.6035  -3.4597  -3.3135  -3.1664  -3.0204  -2.8773  -2.7390  -2.6071  -2.4827  -2.3668  -2.2603  -2.1639  -2.0783  -2.0037  -1.9402  -1.8870  -1.8432  -1.8076  -1.7790  -1.7561  -1.7378  -1.7231  -1.7114  -1.7019  -1.6943  -1.6881  -1.6830  -1.6788  -1.6753  -1.6724  -1.6700  -1.6680  -1.6662  -1.6647  -1.6635  -1.6624  -1.6614  -1.6606  -1.6599  -1.6593  -1.6587  -1.6582  -1.6578  -1.6574  -1.6570  -1.6566  -1.6563  -1.6560  -1.6557  -1.6554  -1.6552  -1.6549  -1.6546  -1.6543  -1.6540  -1.6537  -1.6533  -1.6530  -1.6526  -1.6522  -1.6518  -1.6513  -1.6508  -1.6503  -1.6497  -1.6491  -1.6484  -1.6476
3.240  -4.8550  -4.8515  -4.8464  -4.8392  -4.8293  -4.8160  -4.7982  -4.7751  -4.7453  -4.7078  -4.6616  -4.6063  -4.5415  -4.4668  -4.3820  -4.2868  -4.1813  -4.0657  -3.9410  -3.8086  -3.6701  -3.5271  -3.3813  -3.2342  -3.0877  -2.9437  -2.8041  -2.6705  -2.5442  -2.4263  -2.3175  -2.2188  -2.1308  -2.0541  -1.9887  -1.9339  -1.8889  -1.8524  -1.8231  -1.7996  -1.7810  -1.7661  -1.7541  -1.7446  -1.7369  -1.7306  -1.7255  -1.7213  -1.7178  -1.7149  -1.7125  -1.7104  -1.7087  -1.7072  -1.7060  -1.7049  -1.7040  -1.7031  -1.7024  -1.7018  -1.7013  -1.7008  -1.7004  -1.7000  -1.6996  -1.6993  -1.6990  -1.6988  -1.6985  -1.6983  -1.6980  -1.6978  -1.6976  -1.6974  -1.6971  -1.6969  -1.6966  -1.6963  -1.6961  -1.6957  -1.6954  -1.6951  -1.6947  -1.6943  -1.6938  -1.6933  -1.6928  -1.6922  -1.6916  -1.6909  -1.6901
3.230  -4.8686  -4.8603  -4.8486  -4.8326  -4.8113  -4.7835  -4.7481  -4.7041  -4.6510  -4.5883  -4.5159  -4.4334  -4.3405  -4.2371  -4.1236  -4.0007  -3.8698  -3.7324  -3.5903  -3.4449  -3.2980  -3.1512  -3.0067  -2.8662  -2.7316  -2.6040  -2.4846  -2.3741  -2.2737  -2.1841  -2.1060  -2.0394  -1.9837  -1.9381  -1.9012  -1.8716  -1.8481  -1.8293  -1.8145  -1.8026  -1.7931  -1.7854  -1.7792  -1.7741  -1.7700  -1.7665  -1.7637  -1.7613  -1.7593  -1.7576  -1.7561  -1.7549  -1.7538  -1.7529  -1.7521  -1.7515  -1.7509  -1.7503  -1.7499  -1.7495  -1.7491  -1.7488  -1.7485  -1.7482  -1.7480  -1.7478  -1.7476  -1.7474  -1.7472  -1.7470  -1.7468  -1.7466  -1.7465  -1.7463  -1.7460  -1.7458  -1.7456  -1.7453  -1.7451  -1.7448  -1.7444  -1.7441  -1.7437  -1.7433  -1.7428  -1.7423  -1.7418  -1.7412  -1.7405  -1.7398  -1.7389
3.220  -4.8698  -4.8499  -4.8235  -4.7895  -4.7471  -4.6957  -4.6348  -4.5641  -4.4835  -4.3925  -4.2911  -4.1794  -4.0583  -3.9288  -3.7926  -3.6513  -3.5065  -3.3599  -3.2132  -3.0686  -2.9279  -2.7928  -2.6645  -2.5441  -2.4325  -2.3311  -2.2406  -2.1618  -2.0948  -2.0390  -1.9935  -1.9568  -1.9275  -1.9042  -1.8858  -1.8712  -1.8596  -1.8503  -1.8428  -1.8368  -1.8319  -1.8279  -1.8245  -1.8218  -1.8195  -1.8175  -1.8159  -1.8145  -1.8133  -1.8123  -1.8114  -1.8107  -1.8100  -1.8094  -1.8089  -1.8085  -1.8081  -1.8078  -1.8075  -1.8072  -1.8070  -1.8068  -1.8066  -1.8064  -1.8063  -1.8061  -1.8060  -1.8058  -1.8057  -1.8055  -1.8054  -1.8052  -1.8050  -1.8049  -1.8047  -1.8044  -1.8042  -1.8040  -1.8037  -1.8034  -1.8030  -1.8027  -1.8023  -1.8018  -1.8013  -1.8008  -1.8002  -1.7995  -1.7988  -1.7980  -1.7970
3.210  -4.8335  -4.7923  -4.7422  -4.6828  -4.6137  -4.5348  -4.4456  -4.3461  -4.2364  -4.1170  -3.9892  -3.8543  -3.7140  -3.5700  -3.4240  -3.2781  -3.1343  -2.9943  -2.8595  -2.7312  -2.6105  -2.4986  -2.3968  -2.3062  -2.2276  -2.1611  -2.1060  -2.0613  -2.0255  -1.9970  -1.9745  -1.9568  -1.9428  -1.9317  -1.9229  -1.9158  -1.9101  -1.9054  -1.9016  -1.8985  -1.8959  -1.8937  -1.8919  -1.8903  -1.8890  -1.8879  -1.8870  -1.8862  -1.8855  -1.8848  -1.8843  -1.8839  -1.8835  -1.8831  -1.8828  -1.8826  -1.8823  -1.8821  -1.8819  -1.8818  -1.8816  -1.8815  -1.8814  -1.8812  -1.8811  -1.8810  -1.8809  -1.8808  -1.8807  -1.8805  -1.8804  -1.8802  -1.8801  -1.8799  -1.8796  -1.8794  -1.8791  -1.8788  -1.8785  -1.8781  -1.8777  -1.8773  -1.8768  -1.8763  -1.8757  -1.8750  -1.8743  -1.8735  -1.8725  -1.8715  -1.8702
3.200  -4.7361  -4.6688  -4.5918  -4.5048  -4.4077  -4.3005  -4.1837  -4.0582  -3.9254  -3.7867  -3.6442  -3.5002  -3.3571  -3.2171  -3.0817  -2.9516  -2.8273  -2.7096  -2.6000  -2.5000  -2.4111  -2.3343  -2.2696  -2.2164  -2.1735  -2.1395  -2.1126  -2.0916  -2.0751  -2.0622  -2.0521  -2.0440  -2.0376  -2.0325  -2.0284  -2.0250  -2.0222  -2.0200  -2.0181  -2.0165  -2.0152  -2.0141  -2.0131  -2.0123  -2.0116  -2.0111  -2.0105  -2.0101  -2.0097  -2.0094  -2.0091  -2.0089  -2.0086  -2.0085  -2.0083  -2.0081  -2.0080  -2.0079  -2.0078  -2.0076  -2.0075  -2.0074  -2.0073  -2.0072  -2.0070  -2.0069  -2.0067  -2.0065  -2.0063  -2.0060  -2.0057  -2.0054  -2.0050  -2.0046  -2.0041  -2.0035  -2.0029  -2.0022  -2.0014  -2.0005  -1.9994  -1.9983  -1.9970  -1.9955  -1.9939  -1.9920  -1.9900  -1.9877  -1.9851  -1.9823  -1.9792
#
# AESOPUS computation completed
