#  Calculations performed with AESOPUS via the web interface: http://stev.oapd.inaf.it/aesopus
#  Date:  10/07/2019; Central European Time  22:14:55
#  Tables of Rosseland mean opacities
#  Reference paper: Marigo & Aringer (2009, A&A, 508, 1539)
#
#  Definitions:
#  The base-10 logarithm of the Rosseland mean opacity [cm**2/g] as a function
#  of log10(T) for columns of constant log10(R), where:
#  R=density[g/cm**3]/T6**3, T6=1.e-6*T[K]
#
#  Ranges of state parameters
#
#  log10(T) range: nt=  67  values from  4.500  to  3.200
#  log10(T) = [3.200,3.700] in steps of  0.010
#  log10(T) = ]3.700,4.500] in steps of  0.050
#
#  log10(R) range: nre= 91  values from -8.000  to  1.000
#                           in steps of  0.100
#
#
#  Composition parameters:
#
#       X     = hydrogen mass fraction
#               mh =  1 values from 0.700 to 0.700 in steps of 0.200
#       Zref  = 3.000000E-02  reference metallicity
#       Z     = actual metallicity
#
#       Reference solar mixture: Grevesse & Sauval 1998 ---- Zsun =  0.01696  (C/O)sun =  0.48978
#
#     Zi   element   (ni/nz)sun         (Xi/Z)sun         <Ai>
#
#      3     Li     9.323684E-09     3.757845E-09     6.941739E+00
#      4     Be     1.859891E-08     9.731966E-09     9.012183E+00
#      5     B      2.627166E-07     1.649247E-07     1.081222E+01
#      6     C      2.451814E-01     1.709837E-01     1.201114E+01
#      7     N      6.158679E-02     5.008508E-02     1.400676E+01
#      8     O      5.005962E-01     4.650221E-01     1.599938E+01
#      9     F      2.688361E-05     2.965430E-05     1.899841E+01
#     10     Ne     8.904049E-02     1.042809E-01     2.017132E+01
#     11     Na     1.583024E-03     2.113028E-03     2.298977E+01
#     12     Mg     2.814411E-02     3.972350E-02     2.430955E+01
#     13     Al     2.184679E-03     3.422452E-03     2.698154E+01
#     14     Si     2.627166E-02     4.284049E-02     2.808561E+01
#     15     P      2.086832E-04     3.752879E-04     3.097377E+01
#     16     S      1.583024E-02     2.947097E-02     3.206445E+01
#     17     Cl     2.341464E-04     4.820356E-04     3.545753E+01
#     18     Ar     1.859891E-03     4.313819E-03     3.994766E+01
#     19     K      9.758600E-05     2.215449E-04     3.910130E+01
#     20     Ca     1.696632E-03     3.947852E-03     4.007654E+01
#     21     Sc     1.094933E-06     2.857969E-06     4.495592E+01
#     22     Ti     7.753317E-05     2.155336E-04     4.787893E+01
#     23     V      7.404360E-06     2.189994E-05     5.094157E+01
#     24     Cr     3.463279E-04     1.045572E-03     5.199762E+01
#     25     Mn     1.817136E-04     5.796206E-04     5.493805E+01
#     26     Fe     2.341464E-02     7.592291E-02     5.584731E+01
#     27     Co     6.158679E-05     2.107320E-04     5.893319E+01
#     28     Ni     1.316702E-03     4.487945E-03     5.870525E+01
#     29     Cu     1.201123E-05     4.431668E-05     6.354723E+01
#     30     Zn     2.947729E-05     1.119080E-04     6.538687E+01
#     31     Ga     5.616782E-07     2.273583E-06     6.971723E+01
#     32     Ge     1.903214E-06     8.025819E-06     7.263045E+01
#     33     As     1.736151E-07     7.552272E-07     7.492160E+01
#     34     Se     1.903214E-06     8.728593E-06     7.899028E+01
#     35     Br     3.158548E-07     1.465389E-06     7.990652E+01
#     36     Kr     1.511428E-06     7.353928E-06     8.380092E+01
#     37     Rb     2.947729E-07     1.462765E-06     8.546807E+01
#     38     Sr     6.910151E-07     3.515251E-06     8.761646E+01
#     39     Y      1.287027E-07     6.643562E-07     8.890587E+01
#     40     Zr     2.947729E-07     1.561272E-06     9.122375E+01
#     41     Nb     1.947545E-08     1.050549E-07     9.290638E+01
#     42     Mo     6.158679E-08     3.428800E-07     9.588960E+01
#     43     Tc     0.000000E+00     0.000000E+00     9.690639E+01
#     44     Ru     5.122566E-08     3.005927E-07     1.010666E+02
#     45     Rh     9.758600E-09     5.830546E-08     1.029055E+02
#     46     Pd     3.626499E-08     2.240978E-07     1.064307E+02
#     47     Ag     6.448928E-09     4.038921E-08     1.078685E+02
#     48     Cd     4.360011E-08     2.845931E-07     1.124227E+02
#     49     In     3.384446E-08     2.256221E-07     1.148183E+02
#     50     Sn     7.404360E-08     5.104404E-07     1.187338E+02
#     51     Sb     7.404360E-09     5.234457E-08     1.217590E+02
#     52     Te     1.287027E-07     9.537093E-07     1.276278E+02
#     53     I      2.395452E-08     1.765011E-07     1.269045E+02
#     54     Xe     1.094933E-07     8.346586E-07     1.312920E+02
#     55     Cs     9.990507E-09     7.709272E-08     1.329054E+02
#     56     Ba     9.990507E-08     7.965774E-07     1.373275E+02
#     57     La     1.094933E-08     8.830597E-08     1.389055E+02
#     58     Ce     2.814411E-08     2.289570E-07     1.401146E+02
#     59     Pr     3.796536E-09     3.106028E-08     1.409077E+02
#     60     Nd     2.341464E-08     1.960919E-07     1.442411E+02
#     61     Pm     0.000000E+00     0.000000E+00     1.449128E+02
#     62     Sm     7.576830E-09     6.614742E-08     1.503635E+02
#     63     Eu     2.395452E-09     2.113547E-08     1.519642E+02
#     64     Gd     9.758600E-09     8.909990E-08     1.572558E+02
#     65     Tb     5.881492E-10     5.427051E-09     1.589254E+02
#     66     Dy     1.022322E-08     9.645489E-08     1.625001E+02
#     67     Ho     1.347372E-09     1.290242E-08     1.649304E+02
#     68     Er     6.302133E-09     6.120210E-08     1.672614E+02
#     69     Tm     7.404360E-10     7.262536E-09     1.689342E+02
#     70     Yb     8.904049E-09     8.945589E-08     1.730367E+02
#     71     Lu     8.503301E-10     8.638257E-09     1.749667E+02
#     72     Hf     5.616782E-09     5.820847E-08     1.784907E+02
#     73     Ta     5.488928E-10     5.766657E-09     1.809479E+02
#     74     W      9.540860E-09     1.018390E-07     1.838415E+02
#     75     Re     1.410872E-09     1.525392E-08     1.862134E+02
#     76     Os     2.086832E-08     2.304976E-07     1.902374E+02
#     77     Ir     1.658011E-08     1.850377E-07     1.922161E+02
#     78     Pt     4.671835E-08     5.291572E-07     1.950806E+02
#     79     Au     7.576830E-09     8.664890E-08     1.969666E+02
#     80     Hg     9.990507E-09     1.163576E-07     2.005969E+02
#     81     Tl     5.881492E-09     6.979384E-08     2.043838E+02
#     82     Pb     6.599143E-08     7.939617E-07     2.072187E+02
#     83     Bi     3.796536E-09     4.606554E-08     2.089804E+02
#     84     Po     0.000000E+00     0.000000E+00     2.089824E+02
#     85     At     0.000000E+00     0.000000E+00     2.099870E+02
#     86     Rn     0.000000E+00     0.000000E+00     2.220176E+02
#     87     Fr     0.000000E+00     0.000000E+00     2.230198E+02
#     88     Ra     0.000000E+00     0.000000E+00     2.260254E+02
#     89     Ac     0.000000E+00     0.000000E+00     2.270278E+02
#     90     Th     9.105159E-10     1.226676E-08     2.320381E+02
#     91     Pa     0.000000E+00     0.000000E+00     2.310359E+02
#     92     U      2.341464E-10     3.235939E-09     2.380289E+02
#     93     Np     0.000000E+00     0.000000E+00     2.370482E+02
#     94     Pu     0.000000E+00     0.000000E+00     2.440642E+02
#     95     Am     0.000000E+00     0.000000E+00     2.430614E+02
#     96     Cm     0.000000E+00     0.000000E+00     2.470704E+02
#     97     Bk     0.000000E+00     0.000000E+00     2.470703E+02
#     98     Cf     0.000000E+00     0.000000E+00     2.510796E+02
#     99     Es     0.000000E+00     0.000000E+00     2.540881E+02
#
#
#  Abundance ratio variations of metals with respect to 
#  scaled-solar values: [X_i/Fe] (in dex)
#  Fe-group elements: V, Cr, Mn, Fe, Co, Ni, Cu, Zn
#  Reference metallicity is preserved:  Zref = Z
#  No change in any metal abundance
#
#       1    H         -----      34   [Se/Fe]=   0.000      67   [Ho/Fe]=   0.000
#       2    He        -----      35   [Br/Fe]=   0.000      68   [Er/Fe]=   0.000
#       3   [Li/Fe]=   0.000      36   [Kr/Fe]=   0.000      69   [Tm/Fe]=   0.000
#       4   [Be/Fe]=   0.000      37   [Rb/Fe]=   0.000      70   [Yb/Fe]=   0.000
#       5   [B /Fe]=   0.000      38   [Sr/Fe]=   0.000      71   [Lu/Fe]=   0.000
#       6   [C /Fe]=   0.000      39   [Y /Fe]=   0.000      72   [Hf/Fe]=   0.000
#       7   [N /Fe]=   0.000      40   [Zr/Fe]=   0.000      73   [Ta/Fe]=   0.000
#       8   [O /Fe]=   0.000      41   [Nb/Fe]=   0.000      74   [W /Fe]=   0.000
#       9   [F /Fe]=   0.000      42   [Mo/Fe]=   0.000      75   [Re/Fe]=   0.000
#      10   [Ne/Fe]=   0.000      43   [Tc/Fe]=   0.000      76   [Os/Fe]=   0.000
#      11   [Na/Fe]=   0.000      44   [Ru/Fe]=   0.000      77   [Ir/Fe]=   0.000
#      12   [Mg/Fe]=   0.000      45   [Rh/Fe]=   0.000      78   [Pt/Fe]=   0.000
#      13   [Al/Fe]=   0.000      46   [Pd/Fe]=   0.000      79   [Au/Fe]=   0.000
#      14   [Si/Fe]=   0.000      47   [Ag/Fe]=   0.000      80   [Hg/Fe]=   0.000
#      15   [P /Fe]=   0.000      48   [Cd/Fe]=   0.000      81   [Tl/Fe]=   0.000
#      16   [S /Fe]=   0.000      49   [In/Fe]=   0.000      82   [Pb/Fe]=   0.000
#      17   [Cl/Fe]=   0.000      50   [Sn/Fe]=   0.000      83   [Bi/Fe]=   0.000
#      18   [Ar/Fe]=   0.000      51   [Sb/Fe]=   0.000      84   [Po/Fe]=   0.000
#      19   [K /Fe]=   0.000      52   [Te/Fe]=   0.000      85   [At/Fe]=   0.000
#      20   [Ca/Fe]=   0.000      53   [I /Fe]=   0.000      86   [Rn/Fe]=   0.000
#      21   [Sc/Fe]=   0.000      54   [Xe/Fe]=   0.000      87   [Fr/Fe]=   0.000
#      22   [Ti/Fe]=   0.000      55   [Cs/Fe]=   0.000      88   [Ra/Fe]=   0.000
#      23    V         -----      56   [Ba/Fe]=   0.000      89   [Ac/Fe]=   0.000
#      24    Cr        -----      57   [La/Fe]=   0.000      90   [Th/Fe]=   0.000
#      25    Mn        -----      58   [Ce/Fe]=   0.000      91   [Pa/Fe]=   0.000
#      26    Fe        -----      59   [Pr/Fe]=   0.000      92   [U /Fe]=   0.000
#      27    Co        -----      60   [Nd/Fe]=   0.000      93   [Np/Fe]=   0.000
#      28    Ni        -----      61   [Pm/Fe]=   0.000      94   [Pu/Fe]=   0.000
#      29    Cu        -----      62   [Sm/Fe]=   0.000      95   [Am/Fe]=   0.000
#      30    Zn        -----      63   [Eu/Fe]=   0.000      96   [Cm/Fe]=   0.000
#      31   [Ga/Fe]=   0.000      64   [Gd/Fe]=   0.000      97   [Bk/Fe]=   0.000
#      32   [Ge/Fe]=   0.000      65   [Tb/Fe]=   0.000      98   [Cf/Fe]=   0.000
#      33   [As/Fe]=   0.000      66   [Dy/Fe]=   0.000      99   [Es/Fe]=   0.000
#
#
#  Individual variations of metal abundances (number fraction): log10(variation factor) (in dex)
#  Reference metallicity is in general NOT preserved Zref != Z
#
#       1   H    -----      34   Se   0.000      67   Ho   0.000
#       2   He   -----      35   Br   0.000      68   Er   0.000
#       3   Li   0.000      36   Kr   0.000      69   Tm   0.000
#       4   Be   0.000      37   Rb   0.000      70   Yb   0.000
#       5   B    0.000      38   Sr   0.000      71   Lu   0.000
#       6   C    0.000      39   Y    0.000      72   Hf   0.000
#       7   N    0.000      40   Zr   0.000      73   Ta   0.000
#       8   O    0.000      41   Nb   0.000      74   W    0.000
#       9   F    0.000      42   Mo   0.000      75   Re   0.000
#      10   Ne   0.000      43   Tc   0.000      76   Os   0.000
#      11   Na   0.000      44   Ru   0.000      77   Ir   0.000
#      12   Mg   0.000      45   Rh   0.000      78   Pt   0.000
#      13   Al   0.000      46   Pd   0.000      79   Au   0.000
#      14   Si   0.000      47   Ag   0.000      80   Hg   0.000
#      15   P    0.000      48   Cd   0.000      81   Tl   0.000
#      16   S    0.000      49   In   0.000      82   Pb   0.000
#      17   Cl   0.000      50   Sn   0.000      83   Bi   0.000
#      18   Ar   0.000      51   Sb   0.000      84   Po   0.000
#      19   K    0.000      52   Te   0.000      85   At   0.000
#      20   Ca   0.000      53   I    0.000      86   Rn   0.000
#      21   Sc   0.000      54   Xe   0.000      87   Fr   0.000
#      22   Ti   0.000      55   Cs   0.000      88   Ra   0.000
#      23   V    0.000      56   Ba   0.000      89   Ac   0.000
#      24   Cr   0.000      57   La   0.000      90   Th   0.000
#      25   Mn   0.000      58   Ce   0.000      91   Pa   0.000
#      26   Fe   0.000      59   Pr   0.000      92   U    0.000
#      27   Co   0.000      60   Nd   0.000      93   Np   0.000
#      28   Ni   0.000      61   Pm   0.000      94   Pu   0.000
#      29   Cu   0.000      62   Sm   0.000      95   Am   0.000
#      30   Zn   0.000      63   Eu   0.000      96   Cm   0.000
#      31   Ga   0.000      64   Gd   0.000      97   Bk   0.000
#      32   Ge   0.000      65   Tb   0.000      98   Cf   0.000
#      33   As   0.000      66   Dy   0.000      99   Es   0.000
#
#
#              VARIATION GRID OF C/O - C - N ABUNDANCES (in number fraction)
#
#          FCO = log10(variation factor) of C/O ratio
#
#
#           FC = log10(variation factor) of carbon abundance
#
#
#           FN = log10(variation factor) of nitrogen abundance
#
#
#           FO = FC - FCO = log10(variation factor) of oxygen abundance 
#
#
#              TOTAL NUMBER OF TABLES:   mh x mco x mc x mn =     1
#
#
# TABLE      1     X=  0.700000     Y=  0.270000     Zref= 3.000000E-02     Z= 3.000000E-02     FCO=  0.000   FC=  0.000   FN=  0.000   FO=  0.000  C/O=   4.8978E-01
#
#     Zi   element     ni/nz             Xi/Z            ni/nH            Xi/XH             <Ai>
#
#      3     Li     9.323684E-09     3.757845E-09     2.338536E-11     1.610505E-10       6.941739
#      4     Be     1.859891E-08     9.731966E-09     4.664918E-11     4.170843E-10       9.012183
#      5     B      2.627166E-07     1.649247E-07     6.589372E-10     7.068200E-09      10.812224
#      6     C      2.451814E-01     1.709837E-01     6.149560E-04     7.327873E-03      12.011137
#      7     N      6.158679E-02     5.008508E-02     1.544700E-04     2.146503E-03      14.006763
#      8     O      5.005962E-01     4.650221E-01     1.255579E-03     1.992952E-02      15.999375
#      9     F      2.688361E-05     2.965430E-05     6.742859E-08     1.270899E-06      18.998405
#     10     Ne     8.904049E-02     1.042809E-01     2.233285E-04     4.469183E-03      20.171321
#     11     Na     1.583024E-03     2.113028E-03     3.970490E-06     9.055834E-05      22.989771
#     12     Mg     2.814411E-02     3.972350E-02     7.059014E-05     1.702436E-03      24.309551
#     13     Al     2.184679E-03     3.422452E-03     5.479539E-06     1.466765E-04      26.981541
#     14     Si     2.627166E-02     4.284049E-02     6.589372E-05     1.836021E-03      28.085611
#     15     P      2.086832E-04     3.752879E-04     5.234125E-07     1.608377E-05      30.973765
#     16     S      1.583024E-02     2.947097E-02     3.970490E-05     1.263041E-03      32.064451
#     17     Cl     2.341464E-04     4.820356E-04     5.872784E-07     2.065867E-05      35.457532
#     18     Ar     1.859891E-03     4.313819E-03     4.664918E-06     1.848780E-04      39.947662
#     19     K      9.758600E-05     2.215449E-04     2.447620E-07     9.494782E-06      39.101298
#     20     Ca     1.696632E-03     3.947852E-03     4.255436E-06     1.691937E-04      40.076544
#     21     Sc     1.094933E-06     2.857969E-06     2.746275E-09     1.224844E-07      44.955917
#     22     Ti     7.753317E-05     2.155336E-04     1.944662E-07     9.237154E-06      47.878925
#     23     V      7.404360E-06     2.189994E-05     1.857137E-08     9.385689E-07      50.941572
#     24     Cr     3.463279E-04     1.045572E-03     8.686485E-07     4.481024E-05      51.997623
#     25     Mn     1.817136E-04     5.796206E-04     4.557682E-07     2.484088E-05      54.938046
#     26     Fe     2.341464E-02     7.592291E-02     5.872784E-05     3.253839E-03      55.847311
#     27     Co     6.158679E-05     2.107320E-04     1.544700E-07     9.031372E-06      58.933189
#     28     Ni     1.316702E-03     4.487945E-03     3.302509E-06     1.923405E-04      58.705254
#     29     Cu     1.201123E-05     4.431668E-05     3.012618E-08     1.899286E-06      63.547234
#     30     Zn     2.947729E-05     1.119080E-04     7.393397E-08     4.796058E-06      65.386875
#     31     Ga     5.616782E-07     2.273583E-06     1.408783E-09     9.743925E-08      69.717234
#     32     Ge     1.903214E-06     8.025819E-06     4.773578E-09     3.439637E-07      72.630452
#     33     As     1.736151E-07     7.552272E-07     4.354558E-10     3.236688E-08      74.921600
#     34     Se     1.903214E-06     8.728593E-06     4.773578E-09     3.740825E-07      78.990277
#     35     Br     3.158548E-07     1.465389E-06     7.922168E-10     6.280237E-08      79.906523
#     36     Kr     1.511428E-06     7.353928E-06     3.790915E-09     3.151684E-07      83.800924
#     37     Rb     2.947729E-07     1.462765E-06     7.393397E-10     6.268992E-08      85.468072
#     38     Sr     6.910151E-07     3.515251E-06     1.733182E-09     1.506536E-07      87.616461
#     39     Y      1.287027E-07     6.643562E-07     3.228078E-10     2.847241E-08      88.905867
#     40     Zr     2.947729E-07     1.561272E-06     7.393397E-10     6.691164E-08      91.223746
#     41     Nb     1.947545E-08     1.050549E-07     4.884769E-11     4.502351E-09      92.906380
#     42     Mo     6.158679E-08     3.428800E-07     1.544700E-10     1.469486E-08      95.889605
#     43     Tc     0.000000E+00     0.000000E+00     0.000000E+00     0.000000E+00      96.906390
#     44     Ru     5.122566E-08     3.005927E-07     1.284825E-10     1.288254E-08     101.066641
#     45     Rh     9.758600E-09     5.830546E-08     2.447620E-11     2.498805E-09     102.905511
#     46     Pd     3.626499E-08     2.240978E-07     9.095866E-11     9.604192E-09     106.430727
#     47     Ag     6.448928E-09     4.038921E-08     1.617499E-11     1.730966E-09     107.868530
#     48     Cd     4.360011E-08     2.845931E-07     1.093564E-10     1.219685E-08     112.422659
#     49     In     3.384446E-08     2.256221E-07     8.488756E-11     9.669518E-09     114.818279
#     50     Sn     7.404360E-08     5.104404E-07     1.857137E-10     2.187602E-08     118.733825
#     51     Sb     7.404360E-09     5.234457E-08     1.857137E-11     2.243339E-09     121.758986
#     52     Te     1.287027E-07     9.537093E-07     3.228078E-10     4.087326E-08     127.627845
#     53     I      2.395452E-08     1.765011E-07     6.008196E-11     7.564335E-09     126.904474
#     54     Xe     1.094933E-07     8.346586E-07     2.746275E-10     3.577108E-08     131.292004
#     55     Cs     9.990507E-09     7.709272E-08     2.505786E-11     3.303974E-09     132.905440
#     56     Ba     9.990507E-08     7.965774E-07     2.505786E-10     3.413903E-08     137.327464
#     57     La     1.094933E-08     8.830597E-08     2.746275E-11     3.784542E-09     138.905511
#     58     Ce     2.814411E-08     2.289570E-07     7.059014E-11     9.812443E-09     140.114588
#     59     Pr     3.796536E-09     3.106028E-08     9.522348E-12     1.331155E-09     140.907700
#     60     Nd     2.341464E-08     1.960919E-07     5.872784E-11     8.403937E-09     144.241079
#     61     Pm     0.000000E+00     0.000000E+00     0.000000E+00     0.000000E+00     144.912790
#     62     Sm     7.576830E-09     6.614742E-08     1.900396E-11     2.834890E-09     150.363469
#     63     Eu     2.395452E-09     2.113547E-08     6.008196E-12     9.058058E-10     151.964200
#     64     Gd     9.758600E-09     8.909990E-08     2.447620E-11     3.818567E-09     157.255784
#     65     Tb     5.881492E-10     5.427051E-09     1.475177E-12     2.325879E-10     158.925390
#     66     Dy     1.022322E-08     9.645489E-08     2.564154E-11     4.133781E-09     162.500111
#     67     Ho     1.347372E-09     1.290242E-08     3.379435E-12     5.529609E-10     164.930360
#     68     Er     6.302133E-09     6.120210E-08     1.580680E-11     2.622947E-09     167.261394
#     69     Tm     7.404360E-10     7.262536E-09     1.857137E-12     3.112515E-10     168.934240
#     70     Yb     8.904049E-09     8.945589E-08     2.233285E-11     3.833824E-09     173.036747
#     71     Lu     8.503301E-10     8.638257E-09     2.132770E-12     3.702110E-10     174.966749
#     72     Hf     5.616782E-09     5.820847E-08     1.408783E-11     2.494649E-09     178.490703
#     73     Ta     5.488928E-10     5.766657E-09     1.376715E-12     2.471425E-10     180.947907
#     74     W      9.540860E-09     1.018390E-07     2.393007E-11     4.364529E-09     183.841519
#     75     Re     1.410872E-09     1.525392E-08     3.538703E-12     6.537394E-10     186.213359
#     76     Os     2.086832E-08     2.304976E-07     5.234125E-11     9.878469E-09     190.237368
#     77     Ir     1.658011E-08     1.850377E-07     4.158570E-11     7.930189E-09     192.216095
#     78     Pt     4.671835E-08     5.291572E-07     1.171775E-10     2.267817E-08     195.080617
#     79     Au     7.576830E-09     8.664890E-08     1.900396E-11     3.713524E-09     196.966550
#     80     Hg     9.990507E-09     1.163576E-07     2.505786E-11     4.986755E-09     200.596900
#     81     Tl     5.881492E-09     6.979384E-08     1.475177E-11     2.991165E-09     204.383823
#     82     Pb     6.599143E-08     7.939617E-07     1.655176E-10     3.402693E-08     207.218721
#     83     Bi     3.796536E-09     4.606554E-08     9.522348E-12     1.974237E-09     208.980400
#     84     Po     0.000000E+00     0.000000E+00     0.000000E+00     0.000000E+00     208.982440
#     85     At     0.000000E+00     0.000000E+00     0.000000E+00     0.000000E+00     209.987040
#     86     Rn     0.000000E+00     0.000000E+00     0.000000E+00     0.000000E+00     222.017610
#     87     Fr     0.000000E+00     0.000000E+00     0.000000E+00     0.000000E+00     223.019760
#     88     Ra     0.000000E+00     0.000000E+00     0.000000E+00     0.000000E+00     226.025440
#     89     Ac     0.000000E+00     0.000000E+00     0.000000E+00     0.000000E+00     227.027770
#     90     Th     9.105159E-10     1.226676E-08     2.283726E-12     5.257183E-10     232.038080
#     91     Pa     0.000000E+00     0.000000E+00     0.000000E+00     0.000000E+00     231.035900
#     92     U      2.341464E-10     3.235939E-09     5.872784E-13     1.386831E-10     238.028942
#     93     Np     0.000000E+00     0.000000E+00     0.000000E+00     0.000000E+00     237.048190
#     94     Pu     0.000000E+00     0.000000E+00     0.000000E+00     0.000000E+00     244.064240
#     95     Am     0.000000E+00     0.000000E+00     0.000000E+00     0.000000E+00     243.061390
#     96     Cm     0.000000E+00     0.000000E+00     0.000000E+00     0.000000E+00     247.070380
#     97     Bk     0.000000E+00     0.000000E+00     0.000000E+00     0.000000E+00     247.070320
#     98     Cf     0.000000E+00     0.000000E+00     0.000000E+00     0.000000E+00     251.079610
#     99     Es     0.000000E+00     0.000000E+00     0.000000E+00     0.000000E+00     254.088050
#
#
4.500  -0.4166  -0.4142  -0.4115  -0.4086  -0.4058  -0.4027  -0.3992  -0.3953  -0.3910  -0.3863  -0.3810  -0.3750  -0.3681  -0.3602  -0.3513  -0.3412  -0.3295  -0.3162  -0.3010  -0.2846  -0.2666  -0.2466  -0.2248  -0.2010  -0.1765  -0.1505  -0.1223  -0.0918  -0.0588  -0.0250   0.0110   0.0501   0.0927   0.1386   0.1873   0.2391   0.2947   0.3543   0.4176   0.4846   0.5552   0.6294   0.7068   0.7875   0.8721   0.9598   1.0503   1.1432   1.2382   1.3361   1.4362   1.5381   1.6418   1.7470   1.8524   1.9585   2.0658   2.1743   2.2839   2.3908   2.4966   2.6032   2.7108   2.8191   2.9242   3.0277   3.1324   3.2377   3.3436   3.4479   3.5509   3.6542   3.7576   3.8607   3.9622   4.0611   4.1586   4.2544   4.3475   4.4378   4.5241   4.6066   4.6853   4.7595   4.8289   4.8937   4.9528   5.0068   5.0567   5.1019   5.1429
4.450  -0.4363  -0.4341  -0.4317  -0.4290  -0.4261  -0.4228  -0.4192  -0.4151  -0.4103  -0.4042  -0.3977  -0.3915  -0.3844  -0.3763  -0.3669  -0.3566  -0.3461  -0.3342  -0.3208  -0.3057  -0.2893  -0.2729  -0.2548  -0.2348  -0.2129  -0.1892  -0.1648  -0.1382  -0.1092  -0.0776  -0.0433  -0.0062   0.0343   0.0784   0.1261   0.1778   0.2343   0.2948   0.3592   0.4276   0.4999   0.5770   0.6576   0.7416   0.8286   0.9185   1.0112   1.1063   1.2034   1.3025   1.4031   1.5035   1.6055   1.7090   1.8137   1.9191   2.0222   2.1263   2.2313   2.3372   2.4433   2.5460   2.6493   2.7531   2.8576   2.9624   3.0639   3.1660   3.2685   3.3713   3.4742   3.5743   3.6739   3.7731   3.8715   3.9687   4.0630   4.1542   4.2431   4.3291   4.4114   4.4900   4.5641   4.6334   4.6985   4.7591   4.8153   4.8673   4.9152   4.9587   4.9988
4.400  -0.4455  -0.4443  -0.4433  -0.4419  -0.4399  -0.4372  -0.4338  -0.4305  -0.4268  -0.4222  -0.4167  -0.4103  -0.4039  -0.3971  -0.3894  -0.3805  -0.3704  -0.3600  -0.3489  -0.3366  -0.3230  -0.3079  -0.2915  -0.2735  -0.2537  -0.2319  -0.2080  -0.1816  -0.1527  -0.1208  -0.0859  -0.0476  -0.0052   0.0416   0.0923   0.1470   0.2056   0.2691   0.3371   0.4089   0.4846   0.5638   0.6462   0.7317   0.8200   0.9107   1.0036   1.0970   1.1912   1.2872   1.3845   1.4831   1.5814   1.6800   1.7798   1.8810   1.9833   2.0850   2.1868   2.2894   2.3926   2.4964   2.5988   2.6999   2.8013   2.9031   3.0051   3.1058   3.2044   3.3032   3.4018   3.5000   3.5973   3.6913   3.7840   3.8749   3.9635   4.0494   4.1312   4.2089   4.2829   4.3530   4.4189   4.4809   4.5387   4.5914   4.6407   4.6864   4.7288   4.7683   4.8050
4.350  -0.4622  -0.4602  -0.4578  -0.4551  -0.4526  -0.4496  -0.4460  -0.4417  -0.4370  -0.4323  -0.4272  -0.4214  -0.4151  -0.4081  -0.4010  -0.3934  -0.3850  -0.3758  -0.3657  -0.3545  -0.3420  -0.3281  -0.3124  -0.2947  -0.2748  -0.2525  -0.2277  -0.2000  -0.1691  -0.1347  -0.0967  -0.0551  -0.0097   0.0393   0.0921   0.1487   0.2091   0.2732   0.3407   0.4106   0.4840   0.5605   0.6400   0.7223   0.8063   0.8927   0.9812   1.0717   1.1639   1.2577   1.3529   1.4495   1.5471   1.6457   1.7450   1.8450   1.9454   2.0462   2.1470   2.2467   2.3465   2.4463   2.5463   2.6466   2.7447   2.8428   2.9412   3.0398   3.1385   3.2348   3.3295   3.4233   3.5157   3.6063   3.6940   3.7767   3.8563   3.9324   4.0049   4.0735   4.1382   4.1972   4.2525   4.3041   4.3523   4.3973   4.4392   4.4785   4.5145   4.5478   4.5793
4.300  -0.4751  -0.4738  -0.4722  -0.4697  -0.4673  -0.4649  -0.4624  -0.4596  -0.4563  -0.4528  -0.4488  -0.4445  -0.4397  -0.4346  -0.4289  -0.4225  -0.4154  -0.4073  -0.3982  -0.3879  -0.3759  -0.3622  -0.3466  -0.3288  -0.3084  -0.2857  -0.2601  -0.2315  -0.1994  -0.1636  -0.1250  -0.0831  -0.0374   0.0123   0.0658   0.1221   0.1816   0.2447   0.3114   0.3815   0.4550   0.5317   0.6112   0.6934   0.7780   0.8655   0.9555   1.0471   1.1399   1.2337   1.3292   1.4259   1.5233   1.6211   1.7194   1.8178   1.9166   2.0158   2.1155   2.2156   2.3155   2.4149   2.5147   2.6149   2.7152   2.8150   2.9110   3.0064   3.1009   3.1941   3.2855   3.3714   3.4534   3.5325   3.6083   3.6806   3.7490   3.8116   3.8696   3.9240   3.9750   4.0226   4.0672   4.1089   4.1472   4.1826   4.2159   4.2473   4.2772   4.3057   4.3331
4.250  -0.4822  -0.4808  -0.4791  -0.4771  -0.4749  -0.4723  -0.4693  -0.4661  -0.4626  -0.4587  -0.4543  -0.4494  -0.4444  -0.4388  -0.4326  -0.4254  -0.4172  -0.4083  -0.3981  -0.3863  -0.3725  -0.3568  -0.3405  -0.3218  -0.3007  -0.2766  -0.2495  -0.2210  -0.1892  -0.1540  -0.1153  -0.0729  -0.0274   0.0219   0.0749   0.1316   0.1919   0.2569   0.3253   0.3969   0.4714   0.5488   0.6302   0.7137   0.7989   0.8858   0.9741   1.0650   1.1569   1.2497   1.3432   1.4375   1.5333   1.6300   1.7276   1.8259   1.9251   2.0241   2.1237   2.2236   2.3237   2.4237   2.5211   2.6169   2.7117   2.8052   2.8970   2.9856   3.0683   3.1481   3.2248   3.2979   3.3674   3.4323   3.4910   3.5462   3.5980   3.6466   3.6922   3.7350   3.7750   3.8109   3.8448   3.8769   3.9074   3.9365   3.9644   3.9914   4.0176   4.0424   4.0663
4.200  -0.4851  -0.4827  -0.4800  -0.4772  -0.4742  -0.4708  -0.4669  -0.4627  -0.4588  -0.4548  -0.4504  -0.4455  -0.4400  -0.4348  -0.4293  -0.4229  -0.4156  -0.4070  -0.3977  -0.3875  -0.3754  -0.3613  -0.3449  -0.3264  -0.3055  -0.2818  -0.2547  -0.2242  -0.1900  -0.1519  -0.1102  -0.0647  -0.0154   0.0383   0.0960   0.1572   0.2218   0.2895   0.3606   0.4351   0.5120   0.5910   0.6720   0.7556   0.8419   0.9297   1.0192   1.1102   1.2028   1.2974   1.3930   1.4895   1.5868   1.6846   1.7821   1.8797   1.9775   2.0750   2.1720   2.2649   2.3571   2.4481   2.5374   2.6246   2.7065   2.7851   2.8606   2.9329   3.0018   3.0671   3.1267   3.1817   3.2333   3.2816   3.3269   3.3694   3.4093   3.4460   3.4791   3.5105   3.5404   3.5689   3.5963   3.6227   3.6483   3.6733   3.6966   3.7192   3.7419   3.7646   3.7873
4.150  -0.4788  -0.4769  -0.4748  -0.4725  -0.4701  -0.4682  -0.4661  -0.4638  -0.4613  -0.4585  -0.4561  -0.4532  -0.4499  -0.4460  -0.4415  -0.4364  -0.4301  -0.4226  -0.4137  -0.4030  -0.3906  -0.3759  -0.3589  -0.3390  -0.3163  -0.2902  -0.2608  -0.2281  -0.1917  -0.1514  -0.1065  -0.0578  -0.0051   0.0514   0.1118   0.1768   0.2456   0.3179   0.3937   0.4726   0.5550   0.6404   0.7280   0.8176   0.9088   1.0018   1.0960   1.1909   1.2866   1.3828   1.4782   1.5732   1.6679   1.7618   1.8550   1.9458   2.0340   2.1203   2.2047   2.2868   2.3662   2.4404   2.5117   2.5796   2.6440   2.7049   2.7614   2.8139   2.8627   2.9083   2.9510   2.9910   3.0285   3.0638   3.0967   3.1267   3.1553   3.1826   3.2088   3.2343   3.2590   3.2833   3.3073   3.3303   3.3526   3.3751   3.3977   3.4206   3.4438   3.4674   3.4916
4.100  -0.4957  -0.4952  -0.4947  -0.4941  -0.4935  -0.4927  -0.4918  -0.4907  -0.4895  -0.4880  -0.4860  -0.4837  -0.4810  -0.4777  -0.4737  -0.4687  -0.4630  -0.4558  -0.4472  -0.4369  -0.4247  -0.4101  -0.3927  -0.3725  -0.3490  -0.3220  -0.2909  -0.2556  -0.2160  -0.1721  -0.1232  -0.0695  -0.0107   0.0527   0.1205   0.1924   0.2683   0.3477   0.4303   0.5155   0.6030   0.6921   0.7827   0.8744   0.9669   1.0600   1.1531   1.2451   1.3367   1.4274   1.5173   1.6060   1.6912   1.7743   1.8550   1.9326   2.0071   2.0779   2.1442   2.2065   2.2653   2.3204   2.3719   2.4199   2.4640   2.5053   2.5438   2.5799   2.6139   2.6459   2.6762   2.7041   2.7313   2.7572   2.7823   2.8068   2.8307   2.8544   2.8778   2.9012   2.9247   2.9477   2.9706   2.9939   3.0176   3.0419   3.0668   3.0923   3.1186   3.1457   3.1734
4.050  -0.4972  -0.4971  -0.4971  -0.4971  -0.4971  -0.4972  -0.4973  -0.4972  -0.4971  -0.4967  -0.4960  -0.4949  -0.4932  -0.4906  -0.4871  -0.4823  -0.4760  -0.4679  -0.4581  -0.4457  -0.4307  -0.4128  -0.3916  -0.3667  -0.3379  -0.3052  -0.2681  -0.2267  -0.1809  -0.1304  -0.0757  -0.0161   0.0481   0.1163   0.1884   0.2642   0.3432   0.4250   0.5084   0.5930   0.6791   0.7660   0.8533   0.9396   1.0250   1.1093   1.1922   1.2733   1.3518   1.4272   1.4994   1.5681   1.6335   1.6952   1.7531   1.8072   1.8577   1.9048   1.9487   1.9891   2.0272   2.0627   2.0958   2.1270   2.1559   2.1838   2.2105   2.2360   2.2606   2.2847   2.3083   2.3308   2.3537   2.3766   2.3996   2.4230   2.4464   2.4703   2.4946   2.5176   2.5420   2.5670   2.5928   2.6191   2.6463   2.6743   2.7030   2.7326   2.7631   2.7941   2.8242
4.000  -0.5243  -0.5259  -0.5273  -0.5285  -0.5293  -0.5297  -0.5297  -0.5292  -0.5280  -0.5262  -0.5236  -0.5202  -0.5158  -0.5103  -0.5036  -0.4956  -0.4859  -0.4744  -0.4608  -0.4453  -0.4268  -0.4055  -0.3809  -0.3529  -0.3213  -0.2863  -0.2474  -0.2045  -0.1574  -0.1065  -0.0522   0.0061   0.0681   0.1339   0.2031   0.2739   0.3469   0.4215   0.4969   0.5726   0.6473   0.7207   0.7924   0.8619   0.9287   0.9921   1.0526   1.1096   1.1630   1.2129   1.2595   1.3026   1.3429   1.3805   1.4155   1.4478   1.4784   1.5071   1.5343   1.5603   1.5847   1.6086   1.6318   1.6544   1.6765   1.6984   1.7196   1.7412   1.7628   1.7847   1.8069   1.8296   1.8519   1.8756   1.8997   1.9246   1.9500   1.9764   2.0035   2.0315   2.0594   2.0892   2.1200   2.1517   2.1845   2.2183   2.2530   2.2886   2.3227   2.3595   2.3970
3.950  -0.5377  -0.5367  -0.5355  -0.5339  -0.5321  -0.5297  -0.5271  -0.5240  -0.5205  -0.5163  -0.5115  -0.5058  -0.4991  -0.4913  -0.4822  -0.4716  -0.4598  -0.4463  -0.4308  -0.4131  -0.3930  -0.3714  -0.3468  -0.3194  -0.2891  -0.2556  -0.2199  -0.1815  -0.1402  -0.0960  -0.0492  -0.0006   0.0497   0.1015   0.1541   0.2071   0.2601   0.3119   0.3624   0.4109   0.4573   0.5013   0.5428   0.5819   0.6186   0.6529   0.6851   0.7150   0.7434   0.7700   0.7953   0.8190   0.8423   0.8646   0.8864   0.9074   0.9281   0.9486   0.9692   0.9895   1.0102   1.0312   1.0527   1.0746   1.0964   1.1193   1.1428   1.1670   1.1919   1.2176   1.2438   1.2714   1.2998   1.3292   1.3593   1.3904   1.4216   1.4545   1.4880   1.5227   1.5587   1.5959   1.6339   1.6717   1.7116   1.7523   1.7941   1.8369   1.8806   1.9251   1.9689
3.900  -0.5357  -0.5340  -0.5321  -0.5301  -0.5278  -0.5253  -0.5223  -0.5190  -0.5155  -0.5114  -0.5066  -0.5011  -0.4947  -0.4879  -0.4801  -0.4711  -0.4609  -0.4494  -0.4374  -0.4241  -0.4095  -0.3935  -0.3763  -0.3589  -0.3399  -0.3200  -0.2996  -0.2785  -0.2573  -0.2363  -0.2155  -0.1951  -0.1751  -0.1557  -0.1371  -0.1190  -0.1014  -0.0844  -0.0680  -0.0520  -0.0362  -0.0209  -0.0055   0.0098   0.0250   0.0404   0.0560   0.0718   0.0880   0.1046   0.1216   0.1394   0.1578   0.1768   0.1965   0.2171   0.2385   0.2606   0.2837   0.3077   0.3327   0.3580   0.3850   0.4129   0.4418   0.4716   0.5021   0.5335   0.5659   0.5991   0.6328   0.6676   0.7036   0.7404   0.7780   0.8162   0.8553   0.8952   0.9358   0.9772   1.0193   1.0623   1.1070   1.1526   1.1992   1.2467   1.2952   1.3441   1.3946   1.4460   1.4986
3.850  -0.5341  -0.5328  -0.5314  -0.5300  -0.5288  -0.5277  -0.5267  -0.5256  -0.5243  -0.5235  -0.5230  -0.5227  -0.5225  -0.5227  -0.5233  -0.5247  -0.5269  -0.5298  -0.5336  -0.5386  -0.5448  -0.5522  -0.5607  -0.5703  -0.5809  -0.5922  -0.6042  -0.6170  -0.6296  -0.6424  -0.6550  -0.6675  -0.6796  -0.6909  -0.7012  -0.7105  -0.7187  -0.7255  -0.7309  -0.7347  -0.7367  -0.7368  -0.7349  -0.7311  -0.7254  -0.7174  -0.7073  -0.6950  -0.6808  -0.6646  -0.6464  -0.6262  -0.6044  -0.5805  -0.5552  -0.5285  -0.5004  -0.4709  -0.4401  -0.4082  -0.3751  -0.3409  -0.3059  -0.2698  -0.2326  -0.1946  -0.1558  -0.1162  -0.0759  -0.0352   0.0065   0.0488   0.0917   0.1343   0.1793   0.2251   0.2715   0.3189   0.3668   0.4155   0.4650   0.5154   0.5665   0.6190   0.6731   0.7283   0.7848   0.8422   0.9013   0.9619   1.0239
3.800  -0.5594  -0.5644  -0.5704  -0.5776  -0.5862  -0.5963  -0.6081  -0.6217  -0.6371  -0.6544  -0.6735  -0.6944  -0.7171  -0.7414  -0.7673  -0.7945  -0.8231  -0.8528  -0.8834  -0.9150  -0.9472  -0.9801  -1.0133  -1.0469  -1.0806  -1.1142  -1.1478  -1.1810  -1.2137  -1.2457  -1.2770  -1.3073  -1.3363  -1.3639  -1.3897  -1.4137  -1.4354  -1.4546  -1.4710  -1.4849  -1.4954  -1.5027  -1.5065  -1.5068  -1.5036  -1.4972  -1.4870  -1.4734  -1.4565  -1.4365  -1.4136  -1.3881  -1.3601  -1.3299  -1.2977  -1.2636  -1.2280  -1.1909  -1.1525  -1.1128  -1.0721  -1.0303  -0.9878  -0.9442  -0.8998  -0.8547  -0.8087  -0.7618  -0.7138  -0.6651  -0.6155  -0.5651  -0.5139  -0.4619  -0.4089  -0.3549  -0.2998  -0.2425  -0.1840  -0.1241  -0.0628   0.0001   0.0645   0.1306   0.1979   0.2674   0.3385   0.4114   0.4858   0.5616   0.6386
3.750  -0.7576  -0.7862  -0.8167  -0.8488  -0.8824  -0.9174  -0.9537  -0.9910  -1.0294  -1.0687  -1.1087  -1.1494  -1.1906  -1.2323  -1.2744  -1.3168  -1.3594  -1.4022  -1.4451  -1.4880  -1.5308  -1.5735  -1.6158  -1.6578  -1.6996  -1.7411  -1.7821  -1.8225  -1.8622  -1.9010  -1.9387  -1.9753  -2.0104  -2.0439  -2.0756  -2.1054  -2.1326  -2.1571  -2.1785  -2.1966  -2.2110  -2.2215  -2.2278  -2.2299  -2.2279  -2.2215  -2.2109  -2.1961  -2.1774  -2.1550  -2.1290  -2.0998  -2.0676  -2.0330  -1.9959  -1.9566  -1.9153  -1.8722  -1.8274  -1.7813  -1.7335  -1.6842  -1.6334  -1.5810  -1.5273  -1.4721  -1.4155  -1.3572  -1.2973  -1.2356  -1.1722  -1.1074  -1.0408  -0.9722  -0.9017  -0.8291  -0.7546  -0.6781  -0.5999  -0.5200  -0.4388  -0.3564  -0.2732  -0.1894  -0.1057  -0.0220   0.0616   0.1448   0.2275   0.3094   0.3892
3.700  -1.3068  -1.3509  -1.3954  -1.4402  -1.4852  -1.5304  -1.5757  -1.6211  -1.6666  -1.7120  -1.7574  -1.8028  -1.8481  -1.8932  -1.9381  -1.9829  -2.0273  -2.0715  -2.1153  -2.1587  -2.2016  -2.2444  -2.2868  -2.3286  -2.3698  -2.4104  -2.4502  -2.4892  -2.5273  -2.5643  -2.6004  -2.6356  -2.6695  -2.7018  -2.7324  -2.7609  -2.7872  -2.8109  -2.8318  -2.8495  -2.8644  -2.8756  -2.8829  -2.8859  -2.8844  -2.8785  -2.8682  -2.8534  -2.8343  -2.8108  -2.7830  -2.7511  -2.7152  -2.6754  -2.6320  -2.5851  -2.5349  -2.4811  -2.4239  -2.3635  -2.3000  -2.2335  -2.1641  -2.0919  -2.0168  -1.9389  -1.8588  -1.7767  -1.6928  -1.6076  -1.5209  -1.4333  -1.3452  -1.2567  -1.1680  -1.0794  -0.9927  -0.9068  -0.8216  -0.7375  -0.6543  -0.5723  -0.4924  -0.4138  -0.3363  -0.2601  -0.1852  -0.1116  -0.0396   0.0304   0.0993
3.690  -1.4494  -1.4948  -1.5404  -1.5862  -1.6321  -1.6781  -1.7241  -1.7700  -1.8160  -1.8618  -1.9076  -1.9532  -1.9986  -2.0438  -2.0887  -2.1335  -2.1780  -2.2221  -2.2658  -2.3091  -2.3520  -2.3943  -2.4361  -2.4772  -2.5179  -2.5580  -2.5973  -2.6357  -2.6733  -2.7097  -2.7451  -2.7791  -2.8116  -2.8425  -2.8721  -2.8997  -2.9250  -2.9477  -2.9676  -2.9844  -2.9978  -3.0075  -3.0133  -3.0150  -3.0125  -3.0054  -2.9938  -2.9775  -2.9566  -2.9311  -2.9011  -2.8666  -2.8274  -2.7840  -2.7366  -2.6852  -2.6300  -2.5710  -2.5086  -2.4423  -2.3727  -2.3000  -2.2244  -2.1462  -2.0655  -1.9825  -1.8979  -1.8120  -1.7251  -1.6377  -1.5499  -1.4619  -1.3742  -1.2869  -1.2002  -1.1142  -1.0293  -0.9461  -0.8641  -0.7832  -0.7036  -0.6252  -0.5481  -0.4727  -0.3986  -0.3258  -0.2542  -0.1840  -0.1149  -0.0473   0.0186
3.680  -1.5955  -1.6416  -1.6878  -1.7341  -1.7803  -1.8266  -1.8727  -1.9188  -1.9647  -2.0105  -2.0561  -2.1015  -2.1466  -2.1915  -2.2360  -2.2802  -2.3240  -2.3673  -2.4103  -2.4529  -2.4950  -2.5366  -2.5775  -2.6178  -2.6574  -2.6962  -2.7342  -2.7714  -2.8078  -2.8432  -2.8774  -2.9103  -2.9417  -2.9715  -2.9995  -3.0254  -3.0489  -3.0704  -3.0891  -3.1047  -3.1169  -3.1255  -3.1301  -3.1305  -3.1266  -3.1181  -3.1048  -3.0867  -3.0638  -3.0360  -3.0035  -2.9662  -2.9243  -2.8775  -2.8259  -2.7699  -2.7097  -2.6456  -2.5777  -2.5063  -2.4312  -2.3531  -2.2726  -2.1899  -2.1054  -2.0194  -1.9321  -1.8443  -1.7561  -1.6681  -1.5804  -1.4933  -1.4068  -1.3213  -1.2367  -1.1532  -1.0707  -0.9898  -0.9103  -0.8322  -0.7553  -0.6798  -0.6056  -0.5327  -0.4612  -0.3911  -0.3221  -0.2544  -0.1879  -0.1225  -0.0582
3.670  -1.7461  -1.7925  -1.8390  -1.8854  -1.9317  -1.9778  -2.0238  -2.0697  -2.1153  -2.1607  -2.2057  -2.2505  -2.2950  -2.3392  -2.3831  -2.4264  -2.4694  -2.5118  -2.5538  -2.5952  -2.6360  -2.6762  -2.7160  -2.7552  -2.7936  -2.8313  -2.8681  -2.9040  -2.9390  -2.9728  -3.0054  -3.0371  -3.0673  -3.0960  -3.1228  -3.1475  -3.1700  -3.1899  -3.2069  -3.2209  -3.2316  -3.2386  -3.2416  -3.2402  -3.2344  -3.2237  -3.2083  -3.1878  -3.1621  -3.1311  -3.0950  -3.0538  -3.0074  -2.9561  -2.8999  -2.8387  -2.7731  -2.7036  -2.6304  -2.5539  -2.4746  -2.3925  -2.3085  -2.2230  -2.1364  -2.0491  -1.9613  -1.8735  -1.7860  -1.6991  -1.6129  -1.5277  -1.4436  -1.3605  -1.2787  -1.1980  -1.1186  -1.0403  -0.9637  -0.8885  -0.8145  -0.7418  -0.6703  -0.6001  -0.5311  -0.4635  -0.3969  -0.3314  -0.2670  -0.2035  -0.1411
3.660  -1.8986  -1.9450  -1.9913  -2.0374  -2.0833  -2.1290  -2.1746  -2.2198  -2.2648  -2.3095  -2.3538  -2.3977  -2.4412  -2.4843  -2.5269  -2.5690  -2.6109  -2.6523  -2.6930  -2.7332  -2.7728  -2.8117  -2.8499  -2.8873  -2.9240  -2.9602  -2.9957  -3.0303  -3.0639  -3.0964  -3.1276  -3.1575  -3.1859  -3.2127  -3.2379  -3.2612  -3.2821  -3.3004  -3.3158  -3.3280  -3.3367  -3.3415  -3.3421  -3.3385  -3.3301  -3.3167  -3.2982  -3.2744  -3.2451  -3.2104  -3.1699  -3.1240  -3.0729  -3.0166  -2.9554  -2.8898  -2.8194  -2.7453  -2.6679  -2.5879  -2.5056  -2.4214  -2.3358  -2.2494  -2.1625  -2.0754  -1.9886  -1.9022  -1.8165  -1.7318  -1.6481  -1.5656  -1.4842  -1.4042  -1.3254  -1.2478  -1.1714  -1.0961  -1.0220  -0.9497  -0.8787  -0.8089  -0.7403  -0.6727  -0.6062  -0.5406  -0.4762  -0.4127  -0.3500  -0.2882  -0.2271
3.650  -2.0550  -2.1012  -2.1471  -2.1928  -2.2382  -2.2833  -2.3281  -2.3725  -2.4166  -2.4602  -2.5035  -2.5463  -2.5886  -2.6303  -2.6716  -2.7123  -2.7524  -2.7919  -2.8308  -2.8694  -2.9075  -2.9449  -2.9816  -3.0176  -3.0527  -3.0870  -3.1203  -3.1527  -3.1844  -3.2154  -3.2451  -3.2733  -3.3000  -3.3249  -3.3479  -3.3687  -3.3871  -3.4032  -3.4163  -3.4258  -3.4315  -3.4331  -3.4305  -3.4233  -3.4113  -3.3942  -3.3716  -3.3435  -3.3097  -3.2702  -3.2251  -3.1743  -3.1181  -3.0571  -2.9916  -2.9219  -2.8484  -2.7714  -2.6918  -2.6101  -2.5268  -2.4424  -2.3571  -2.2715  -2.1859  -2.1008  -2.0162  -1.9324  -1.8495  -1.7677  -1.6871  -1.6075  -1.5291  -1.4520  -1.3764  -1.3020  -1.2287  -1.1566  -1.0854  -1.0153  -0.9468  -0.8794  -0.8130  -0.7475  -0.6828  -0.6190  -0.5559  -0.4936  -0.4322  -0.3713  -0.3110
3.640  -2.2189  -2.2646  -2.3099  -2.3550  -2.3998  -2.4443  -2.4883  -2.5319  -2.5751  -2.6179  -2.6601  -2.7018  -2.7429  -2.7836  -2.8238  -2.8634  -2.9024  -2.9407  -2.9784  -3.0153  -3.0515  -3.0870  -3.1218  -3.1562  -3.1898  -3.2225  -3.2542  -3.2848  -3.3143  -3.3425  -3.3693  -3.3949  -3.4191  -3.4414  -3.4615  -3.4794  -3.4946  -3.5068  -3.5159  -3.5215  -3.5233  -3.5208  -3.5136  -3.5014  -3.4841  -3.4614  -3.4334  -3.3998  -3.3606  -3.3157  -3.2655  -3.2101  -3.1494  -3.0844  -3.0153  -2.9427  -2.8670  -2.7886  -2.7082  -2.6264  -2.5435  -2.4600  -2.3764  -2.2930  -2.2101  -2.1279  -2.0463  -1.9656  -1.8863  -1.8082  -1.7313  -1.6556  -1.5810  -1.5076  -1.4353  -1.3644  -1.2947  -1.2260  -1.1584  -1.0918  -1.0261  -0.9615  -0.8977  -0.8348  -0.7725  -0.7108  -0.6498  -0.5893  -0.5293  -0.4699  -0.4111
3.630  -2.3841  -2.4292  -2.4738  -2.5181  -2.5620  -2.6055  -2.6485  -2.6910  -2.7331  -2.7747  -2.8158  -2.8562  -2.8961  -2.9355  -2.9741  -3.0122  -3.0496  -3.0865  -3.1228  -3.1584  -3.1932  -3.2273  -3.2605  -3.2929  -3.3244  -3.3549  -3.3846  -3.4131  -3.4404  -3.4663  -3.4906  -3.5132  -3.5339  -3.5526  -3.5693  -3.5834  -3.5946  -3.6027  -3.6074  -3.6083  -3.6051  -3.5976  -3.5854  -3.5681  -3.5457  -3.5178  -3.4845  -3.4457  -3.4016  -3.3522  -3.2978  -3.2388  -3.1752  -3.1076  -3.0365  -2.9625  -2.8860  -2.8075  -2.7280  -2.6476  -2.5667  -2.4858  -2.4051  -2.3250  -2.2455  -2.1670  -2.0894  -2.0129  -1.9374  -1.8629  -1.7896  -1.7174  -1.6462  -1.5762  -1.5073  -1.4393  -1.3724  -1.3064  -1.2414  -1.1771  -1.1137  -1.0510  -0.9889  -0.9274  -0.8665  -0.8059  -0.7458  -0.6861  -0.6267  -0.5677  -0.5091
3.620  -2.5497  -2.5936  -2.6373  -2.6804  -2.7232  -2.7654  -2.8070  -2.8482  -2.8888  -2.9288  -2.9682  -3.0071  -3.0455  -3.0832  -3.1203  -3.1568  -3.1926  -3.2277  -3.2621  -3.2957  -3.3287  -3.3609  -3.3923  -3.4227  -3.4520  -3.4803  -3.5073  -3.5331  -3.5574  -3.5803  -3.6014  -3.6206  -3.6377  -3.6524  -3.6646  -3.6739  -3.6804  -3.6834  -3.6829  -3.6784  -3.6698  -3.6567  -3.6389  -3.6162  -3.5884  -3.5553  -3.5169  -3.4735  -3.4254  -3.3726  -3.3153  -3.2539  -3.1887  -3.1202  -3.0489  -2.9754  -2.9001  -2.8235  -2.7462  -2.6685  -2.5908  -2.5133  -2.4364  -2.3600  -2.2846  -2.2100  -2.1364  -2.0638  -1.9921  -1.9214  -1.8516  -1.7829  -1.7152  -1.6484  -1.5826  -1.5177  -1.4535  -1.3901  -1.3273  -1.2652  -1.2036  -1.1425  -1.0818  -1.0214  -0.9612  -0.9013  -0.8415  -0.7819  -0.7225  -0.6632  -0.6042
3.610  -2.7161  -2.7589  -2.8011  -2.8429  -2.8840  -2.9246  -2.9648  -3.0043  -3.0433  -3.0817  -3.1194  -3.1565  -3.1930  -3.2289  -3.2641  -3.2988  -3.3328  -3.3661  -3.3986  -3.4303  -3.4611  -3.4910  -3.5198  -3.5477  -3.5745  -3.5999  -3.6239  -3.6464  -3.6671  -3.6861  -3.7030  -3.7178  -3.7302  -3.7400  -3.7471  -3.7513  -3.7522  -3.7497  -3.7436  -3.7336  -3.7194  -3.7010  -3.6780  -3.6504  -3.6181  -3.5809  -3.5390  -3.4925  -3.4417  -3.3867  -3.3279  -3.2657  -3.2005  -3.1326  -3.0627  -2.9911  -2.9183  -2.8447  -2.7707  -2.6969  -2.6233  -2.5501  -2.4775  -2.4054  -2.3340  -2.2636  -2.1939  -2.1251  -2.0571  -1.9899  -1.9236  -1.8581  -1.7934  -1.7295  -1.6664  -1.6039  -1.5420  -1.4806  -1.4196  -1.3590  -1.2987  -1.2385  -1.1784  -1.1184  -1.0584  -0.9984  -0.9384  -0.8782  -0.8180  -0.7578  -0.6976
3.600  -2.8846  -2.9259  -2.9666  -3.0068  -3.0464  -3.0854  -3.1238  -3.1616  -3.1988  -3.2354  -3.2713  -3.3067  -3.3414  -3.3754  -3.4088  -3.4414  -3.4733  -3.5044  -3.5346  -3.5638  -3.5921  -3.6192  -3.6451  -3.6697  -3.6929  -3.7146  -3.7345  -3.7527  -3.7689  -3.7830  -3.7948  -3.8043  -3.8112  -3.8155  -3.8170  -3.8155  -3.8108  -3.8029  -3.7914  -3.7763  -3.7573  -3.7343  -3.7072  -3.6757  -3.6400  -3.5999  -3.5556  -3.5073  -3.4552  -3.3996  -3.3409  -3.2794  -3.2157  -3.1501  -3.0832  -3.0152  -2.9466  -2.8776  -2.8085  -2.7396  -2.6709  -2.6026  -2.5347  -2.4673  -2.4005  -2.3342  -2.2686  -2.2035  -2.1392  -2.0754  -2.0124  -1.9499  -1.8880  -1.8266  -1.7658  -1.7053  -1.6451  -1.5852  -1.5254  -1.4657  -1.4060  -1.3462  -1.2862  -1.2260  -1.1655  -1.1048  -1.0437  -0.9824  -0.9208  -0.8590  -0.7971
3.590  -3.0438  -3.0829  -3.1213  -3.1592  -3.1964  -3.2329  -3.2689  -3.3042  -3.3389  -3.3729  -3.4063  -3.4390  -3.4710  -3.5023  -3.5328  -3.5624  -3.5911  -3.6188  -3.6454  -3.6709  -3.6951  -3.7180  -3.7394  -3.7592  -3.7774  -3.7938  -3.8083  -3.8208  -3.8312  -3.8395  -3.8455  -3.8492  -3.8505  -3.8494  -3.8456  -3.8392  -3.8300  -3.8179  -3.8027  -3.7841  -3.7622  -3.7367  -3.7074  -3.6742  -3.6373  -3.5965  -3.5520  -3.5041  -3.4530  -3.3991  -3.3427  -3.2842  -3.2240  -3.1624  -3.0998  -3.0365  -2.9727  -2.9087  -2.8445  -2.7803  -2.7163  -2.6524  -2.5887  -2.5253  -2.4623  -2.3997  -2.3375  -2.2757  -2.2143  -2.1534  -2.0930  -2.0329  -1.9731  -1.9136  -1.8543  -1.7951  -1.7359  -1.6766  -1.6172  -1.5575  -1.4974  -1.4369  -1.3759  -1.3144  -1.2522  -1.1894  -1.1260  -1.0619  -0.9974  -0.9324  -0.8674
3.580  -3.1971  -3.2336  -3.2694  -3.3045  -3.3391  -3.3730  -3.4063  -3.4389  -3.4708  -3.5021  -3.5326  -3.5623  -3.5912  -3.6192  -3.6462  -3.6721  -3.6969  -3.7205  -3.7427  -3.7636  -3.7829  -3.8007  -3.8168  -3.8311  -3.8436  -3.8543  -3.8630  -3.8697  -3.8745  -3.8773  -3.8780  -3.8766  -3.8732  -3.8676  -3.8599  -3.8498  -3.8373  -3.8222  -3.8044  -3.7837  -3.7600  -3.7330  -3.7027  -3.6691  -3.6321  -3.5919  -3.5487  -3.5026  -3.4541  -3.4033  -3.3506  -3.2963  -3.2408  -3.1842  -3.1268  -3.0687  -3.0102  -2.9512  -2.8920  -2.8326  -2.7730  -2.7133  -2.6536  -2.5940  -2.5345  -2.4752  -2.4160  -2.3570  -2.2983  -2.2397  -2.1813  -2.1230  -2.0647  -2.0064  -1.9479  -1.8891  -1.8301  -1.7706  -1.7105  -1.6498  -1.5883  -1.5260  -1.4627  -1.3985  -1.3333  -1.2670  -1.1998  -1.1318  -1.0631  -0.9942  -0.9253
3.570  -3.3422  -3.3758  -3.4088  -3.4412  -3.4729  -3.5040  -3.5344  -3.5640  -3.5929  -3.6209  -3.6480  -3.6742  -3.6993  -3.7233  -3.7460  -3.7675  -3.7875  -3.8061  -3.8232  -3.8387  -3.8526  -3.8647  -3.8751  -3.8837  -3.8906  -3.8957  -3.8991  -3.9007  -3.9006  -3.8988  -3.8953  -3.8901  -3.8832  -3.8745  -3.8639  -3.8513  -3.8367  -3.8198  -3.8005  -3.7787  -3.7542  -3.7270  -3.6970  -3.6641  -3.6286  -3.5904  -3.5499  -3.5071  -3.4625  -3.4161  -3.3683  -3.3192  -3.2690  -3.2179  -3.1659  -3.1132  -3.0599  -3.0059  -2.9513  -2.8963  -2.8409  -2.7851  -2.7291  -2.6728  -2.6164  -2.5599  -2.5033  -2.4467  -2.3899  -2.3330  -2.2760  -2.2187  -2.1610  -2.1029  -2.0443  -1.9851  -1.9250  -1.8641  -1.8022  -1.7391  -1.6747  -1.6090  -1.5419  -1.4734  -1.4034  -1.3323  -1.2601  -1.1871  -1.1139  -1.0407  -0.9682
3.560  -3.4774  -3.5082  -3.5382  -3.5677  -3.5964  -3.6243  -3.6514  -3.6775  -3.7027  -3.7269  -3.7499  -3.7717  -3.7922  -3.8114  -3.8291  -3.8453  -3.8600  -3.8731  -3.8846  -3.8945  -3.9028  -3.9094  -3.9145  -3.9180  -3.9199  -3.9204  -3.9194  -3.9171  -3.9133  -3.9082  -3.9017  -3.8939  -3.8846  -3.8739  -3.8615  -3.8476  -3.8318  -3.8141  -3.7945  -3.7727  -3.7488  -3.7226  -3.6943  -3.6637  -3.6310  -3.5964  -3.5599  -3.5217  -3.4820  -3.4408  -3.3984  -3.3548  -3.3102  -3.2645  -3.2178  -3.1702  -3.1217  -3.0723  -3.0221  -2.9711  -2.9195  -2.8671  -2.8143  -2.7609  -2.7071  -2.6528  -2.5982  -2.5431  -2.4876  -2.4315  -2.3749  -2.3176  -2.2595  -2.2006  -2.1406  -2.0794  -2.0169  -1.9530  -1.8874  -1.8202  -1.7511  -1.6802  -1.6075  -1.5331  -1.4573  -1.3803  -1.3026  -1.2247  -1.1471  -1.0705  -0.9956
3.550  -3.6017  -3.6294  -3.6563  -3.6823  -3.7075  -3.7316  -3.7547  -3.7767  -3.7974  -3.8169  -3.8350  -3.8517  -3.8669  -3.8807  -3.8930  -3.9037  -3.9129  -3.9207  -3.9269  -3.9316  -3.9349  -3.9369  -3.9376  -3.9370  -3.9352  -3.9322  -3.9282  -3.9230  -3.9168  -3.9095  -3.9012  -3.8917  -3.8811  -3.8693  -3.8562  -3.8418  -3.8261  -3.8088  -3.7901  -3.7698  -3.7479  -3.7243  -3.6991  -3.6722  -3.6437  -3.6137  -3.5821  -3.5491  -3.5147  -3.4790  -3.4420  -3.4038  -3.3645  -3.3239  -3.2821  -3.2392  -3.1951  -3.1498  -3.1034  -3.0560  -3.0075  -2.9582  -2.9079  -2.8568  -2.8048  -2.7521  -2.6985  -2.6441  -2.5888  -2.5324  -2.4750  -2.4164  -2.3565  -2.2951  -2.2320  -2.1671  -2.1003  -2.0313  -1.9602  -1.8868  -1.8112  -1.7335  -1.6540  -1.5730  -1.4909  -1.4082  -1.3255  -1.2436  -1.1631  -1.0847  -1.0091
3.540  -3.7136  -3.7376  -3.7607  -3.7827  -3.8035  -3.8231  -3.8414  -3.8583  -3.8739  -3.8881  -3.9009  -3.9122  -3.9221  -3.9305  -3.9376  -3.9432  -3.9476  -3.9506  -3.9524  -3.9530  -3.9525  -3.9510  -3.9484  -3.9450  -3.9406  -3.9354  -3.9293  -3.9225  -3.9148  -3.9063  -3.8970  -3.8869  -3.8760  -3.8642  -3.8516  -3.8381  -3.8237  -3.8083  -3.7920  -3.7746  -3.7561  -3.7364  -3.7155  -3.6932  -3.6696  -3.6446  -3.6182  -3.5904  -3.5613  -3.5308  -3.4989  -3.4657  -3.4311  -3.3951  -3.3577  -3.3189  -3.2787  -3.2370  -3.1940  -3.1495  -3.1037  -3.0566  -3.0082  -2.9585  -2.9075  -2.8552  -2.8016  -2.7465  -2.6900  -2.6319  -2.5721  -2.5104  -2.4467  -2.3808  -2.3125  -2.2418  -2.1684  -2.0924  -2.0138  -1.9328  -1.8495  -1.7644  -1.6779  -1.5905  -1.5029  -1.4157  -1.3298  -1.2458  -1.1645  -1.0865  -1.0125
3.530  -3.8105  -3.8301  -3.8484  -3.8655  -3.8813  -3.8957  -3.9088  -3.9204  -3.9308  -3.9397  -3.9474  -3.9537  -3.9587  -3.9625  -3.9652  -3.9667  -3.9671  -3.9666  -3.9652  -3.9628  -3.9597  -3.9558  -3.9512  -3.9459  -3.9400  -3.9334  -3.9263  -3.9187  -3.9105  -3.9018  -3.8926  -3.8831  -3.8731  -3.8627  -3.8519  -3.8407  -3.8291  -3.8171  -3.8044  -3.7910  -3.7769  -3.7618  -3.7457  -3.7283  -3.7097  -3.6897  -3.6682  -3.6453  -3.6210  -3.5951  -3.5678  -3.5390  -3.5087  -3.4767  -3.4432  -3.4080  -3.3711  -3.3325  -3.2921  -3.2499  -3.2059  -3.1601  -3.1124  -3.0630  -3.0116  -2.9584  -2.9032  -2.8459  -2.7864  -2.7246  -2.6602  -2.5933  -2.5235  -2.4508  -2.3751  -2.2963  -2.2146  -2.1301  -2.0431  -1.9540  -1.8632  -1.7712  -1.6788  -1.5865  -1.4952  -1.4057  -1.3187  -1.2351  -1.1554  -1.0804  -1.0103
3.520  -3.8892  -3.9037  -3.9169  -3.9288  -3.9393  -3.9486  -3.9567  -3.9634  -3.9690  -3.9734  -3.9767  -3.9789  -3.9801  -3.9803  -3.9796  -3.9782  -3.9759  -3.9730  -3.9694  -3.9652  -3.9604  -3.9551  -3.9494  -3.9432  -3.9366  -3.9297  -3.9225  -3.9152  -3.9076  -3.9000  -3.8923  -3.8846  -3.8770  -3.8694  -3.8618  -3.8542  -3.8465  -3.8386  -3.8303  -3.8215  -3.8120  -3.8016  -3.7901  -3.7775  -3.7634  -3.7479  -3.7310  -3.7124  -3.6923  -3.6706  -3.6473  -3.6224  -3.5958  -3.5674  -3.5371  -3.5048  -3.4705  -3.4341  -3.3954  -3.3544  -3.3110  -3.2652  -3.2170  -3.1662  -3.1129  -3.0569  -2.9981  -2.9364  -2.8717  -2.8037  -2.7324  -2.6577  -2.5795  -2.4979  -2.4130  -2.3251  -2.2344  -2.1414  -2.0464  -1.9500  -1.8528  -1.7556  -1.6591  -1.5641  -1.4716  -1.3824  -1.2971  -1.2165  -1.1411  -1.0712  -1.0068
3.510  -3.9480  -3.9575  -3.9658  -3.9728  -3.9788  -3.9836  -3.9873  -3.9900  -3.9918  -3.9926  -3.9926  -3.9918  -3.9903  -3.9881  -3.9852  -3.9819  -3.9779  -3.9736  -3.9687  -3.9636  -3.9581  -3.9523  -3.9463  -3.9403  -3.9341  -3.9281  -3.9221  -3.9163  -3.9107  -3.9055  -3.9006  -3.8961  -3.8920  -3.8882  -3.8847  -3.8813  -3.8779  -3.8745  -3.8706  -3.8663  -3.8611  -3.8551  -3.8478  -3.8393  -3.8294  -3.8179  -3.8049  -3.7902  -3.7739  -3.7558  -3.7360  -3.7144  -3.6909  -3.6652  -3.6374  -3.6071  -3.5744  -3.5389  -3.5007  -3.4595  -3.4153  -3.3679  -3.3173  -3.2633  -3.2058  -3.1448  -3.0799  -3.0112  -2.9385  -2.8617  -2.7811  -2.6966  -2.6086  -2.5173  -2.4230  -2.3262  -2.2272  -2.1266  -2.0249  -1.9229  -1.8214  -1.7211  -1.6231  -1.5283  -1.4375  -1.3514  -1.2706  -1.1955  -1.1264  -1.0633  -1.0060
3.500  -3.9882  -3.9933  -3.9974  -4.0005  -4.0027  -4.0040  -4.0044  -4.0042  -4.0032  -4.0016  -3.9995  -3.9967  -3.9935  -3.9899  -3.9858  -3.9814  -3.9767  -3.9718  -3.9667  -3.9615  -3.9563  -3.9512  -3.9463  -3.9416  -3.9372  -3.9332  -3.9297  -3.9268  -3.9244  -3.9227  -3.9216  -3.9211  -3.9211  -3.9215  -3.9223  -3.9231  -3.9240  -3.9246  -3.9249  -3.9245  -3.9233  -3.9210  -3.9176  -3.9128  -3.9065  -3.8986  -3.8891  -3.8778  -3.8647  -3.8497  -3.8327  -3.8136  -3.7922  -3.7683  -3.7417  -3.7123  -3.6797  -3.6439  -3.6046  -3.5615  -3.5146  -3.4636  -3.4083  -3.3485  -3.2841  -3.2150  -3.1411  -3.0626  -2.9796  -2.8923  -2.8012  -2.7066  -2.6089  -2.5085  -2.4057  -2.3010  -2.1950  -2.0884  -1.9820  -1.8766  -1.7732  -1.6729  -1.5765  -1.4849  -1.3987  -1.3185  -1.2445  -1.1768  -1.1155  -1.0602  -1.0107
3.490  -4.0126  -4.0142  -4.0150  -4.0151  -4.0146  -4.0134  -4.0117  -4.0094  -4.0067  -4.0035  -3.9999  -3.9961  -3.9919  -3.9875  -3.9830  -3.9783  -3.9737  -3.9691  -3.9647  -3.9605  -3.9567  -3.9533  -3.9504  -3.9481  -3.9465  -3.9455  -3.9454  -3.9460  -3.9474  -3.9496  -3.9525  -3.9559  -3.9598  -3.9641  -3.9687  -3.9732  -3.9777  -3.9819  -3.9856  -3.9886  -3.9907  -3.9918  -3.9916  -3.9899  -3.9867  -3.9817  -3.9749  -3.9661  -3.9552  -3.9422  -3.9267  -3.9088  -3.8881  -3.8646  -3.8378  -3.8076  -3.7737  -3.7358  -3.6935  -3.6465  -3.5945  -3.5372  -3.4743  -3.4057  -3.3315  -3.2518  -3.1669  -3.0772  -2.9833  -2.8855  -2.7844  -2.6803  -2.5737  -2.4650  -2.3547  -2.2435  -2.1322  -2.0217  -1.9131  -1.8074  -1.7057  -1.6088  -1.5174  -1.4323  -1.3536  -1.2816  -1.2162  -1.1573  -1.1046  -1.0577  -1.0160
3.480  -4.0250  -4.0242  -4.0228  -4.0209  -4.0185  -4.0158  -4.0126  -4.0092  -4.0055  -4.0015  -3.9974  -3.9932  -3.9890  -3.9849  -3.9808  -3.9770  -3.9736  -3.9705  -3.9679  -3.9659  -3.9645  -3.9639  -3.9641  -3.9651  -3.9670  -3.9698  -3.9735  -3.9780  -3.9832  -3.9891  -3.9957  -4.0027  -4.0101  -4.0178  -4.0256  -4.0335  -4.0411  -4.0485  -4.0552  -4.0613  -4.0663  -4.0702  -4.0726  -4.0734  -4.0724  -4.0695  -4.0643  -4.0569  -4.0470  -4.0346  -4.0194  -4.0012  -3.9799  -3.9552  -3.9267  -3.8940  -3.8568  -3.8145  -3.7666  -3.7127  -3.6523  -3.5853  -3.5116  -3.4315  -3.3454  -3.2538  -3.1573  -3.0567  -2.9524  -2.8449  -2.7346  -2.6221  -2.5077  -2.3921  -2.2762  -2.1609  -2.0474  -1.9366  -1.8297  -1.7277  -1.6314  -1.5414  -1.4581  -1.3818  -1.3125  -1.2500  -1.1942  -1.1445  -1.1005  -1.0616  -1.0274
3.470  -4.0293  -4.0269  -4.0241  -4.0210  -4.0177  -4.0141  -4.0104  -4.0066  -4.0027  -3.9989  -3.9952  -3.9917  -3.9885  -3.9857  -3.9833  -3.9814  -3.9802  -3.9797  -3.9799  -3.9810  -3.9830  -3.9859  -3.9898  -3.9946  -4.0002  -4.0067  -4.0140  -4.0220  -4.0306  -4.0398  -4.0496  -4.0597  -4.0702  -4.0809  -4.0917  -4.1025  -4.1130  -4.1230  -4.1324  -4.1408  -4.1481  -4.1539  -4.1581  -4.1603  -4.1604  -4.1582  -4.1535  -4.1460  -4.1358  -4.1226  -4.1062  -4.0864  -4.0629  -4.0353  -4.0030  -3.9656  -3.9223  -3.8725  -3.8155  -3.7510  -3.6789  -3.5993  -3.5128  -3.4199  -3.3216  -3.2185  -3.1114  -3.0008  -2.8871  -2.7709  -2.6527  -2.5330  -2.4128  -2.2931  -2.1749  -2.0593  -1.9476  -1.8408  -1.7397  -1.6451  -1.5574  -1.4769  -1.4037  -1.3377  -1.2787  -1.2263  -1.1800  -1.1392  -1.1035  -1.0721  -1.0446
3.460  -4.0287  -4.0255  -4.0221  -4.0186  -4.0151  -4.0116  -4.0082  -4.0050  -4.0020  -3.9994  -3.9972  -3.9955  -3.9943  -3.9938  -3.9940  -3.9951  -3.9970  -3.9998  -4.0036  -4.0083  -4.0139  -4.0205  -4.0279  -4.0362  -4.0452  -4.0549  -4.0653  -4.0764  -4.0880  -4.1002  -4.1128  -4.1258  -4.1391  -4.1525  -4.1658  -4.1790  -4.1917  -4.2037  -4.2149  -4.2248  -4.2332  -4.2398  -4.2445  -4.2468  -4.2466  -4.2437  -4.2379  -4.2291  -4.2171  -4.2017  -4.1826  -4.1594  -4.1318  -4.0990  -4.0603  -4.0148  -3.9618  -3.9006  -3.8309  -3.7529  -3.6669  -3.5737  -3.4742  -3.3693  -3.2599  -3.1466  -3.0299  -2.9104  -2.7886  -2.6652  -2.5410  -2.4171  -2.2946  -2.1747  -2.0585  -1.9472  -1.8417  -1.7427  -1.6508  -1.5662  -1.4893  -1.4198  -1.3577  -1.3026  -1.2539  -1.2113  -1.1741  -1.1416  -1.1133  -1.0886  -1.0670
3.450  -4.0264  -4.0232  -4.0201  -4.0171  -4.0144  -4.0120  -4.0099  -4.0083  -4.0072  -4.0068  -4.0070  -4.0079  -4.0097  -4.0124  -4.0160  -4.0205  -4.0260  -4.0324  -4.0397  -4.0479  -4.0569  -4.0666  -4.0771  -4.0884  -4.1003  -4.1129  -4.1261  -4.1400  -4.1544  -4.1692  -4.1844  -4.1999  -4.2154  -4.2309  -4.2462  -4.2609  -4.2749  -4.2878  -4.2995  -4.3096  -4.3178  -4.3238  -4.3274  -4.3283  -4.3264  -4.3214  -4.3132  -4.3016  -4.2863  -4.2671  -4.2435  -4.2148  -4.1804  -4.1392  -4.0903  -4.0328  -3.9663  -3.8905  -3.8060  -3.7134  -3.6136  -3.5077  -3.3966  -3.2811  -3.1618  -3.0394  -2.9144  -2.7876  -2.6599  -2.5322  -2.4058  -2.2819  -2.1617  -2.0463  -1.9366  -1.8335  -1.7377  -1.6493  -1.5687  -1.4959  -1.4308  -1.3730  -1.3222  -1.2777  -1.2390  -1.2055  -1.1764  -1.1513  -1.1294  -1.1104  -1.0937
3.440  -4.0258  -4.0236  -4.0217  -4.0203  -4.0193  -4.0189  -4.0191  -4.0200  -4.0217  -4.0242  -4.0276  -4.0319  -4.0372  -4.0433  -4.0504  -4.0584  -4.0672  -4.0768  -4.0872  -4.0983  -4.1102  -4.1228  -4.1360  -4.1500  -4.1647  -4.1799  -4.1958  -4.2121  -4.2289  -4.2460  -4.2632  -4.2804  -4.2974  -4.3140  -4.3300  -4.3451  -4.3590  -4.3715  -4.3822  -4.3909  -4.3974  -4.4013  -4.4024  -4.4004  -4.3953  -4.3869  -4.3748  -4.3590  -4.3389  -4.3140  -4.2834  -4.2461  -4.2011  -4.1474  -4.0843  -4.0115  -3.9292  -3.8379  -3.7387  -3.6326  -3.5206  -3.4035  -3.2822  -3.1573  -3.0296  -2.8998  -2.7689  -2.6379  -2.5081  -2.3806  -2.2567  -2.1376  -2.0243  -1.9175  -1.8180  -1.7261  -1.6421  -1.5661  -1.4980  -1.4377  -1.3846  -1.3384  -1.2983  -1.2638  -1.2340  -1.2084  -1.1864  -1.1674  -1.1509  -1.1365  -1.1238
3.430  -4.0306  -4.0303  -4.0305  -4.0314  -4.0331  -4.0355  -4.0387  -4.0428  -4.0478  -4.0538  -4.0606  -4.0683  -4.0769  -4.0863  -4.0965  -4.1074  -4.1191  -4.1315  -4.1446  -4.1584  -4.1729  -4.1882  -4.2041  -4.2206  -4.2377  -4.2553  -4.2733  -4.2916  -4.3101  -4.3285  -4.3467  -4.3646  -4.3819  -4.3983  -4.4136  -4.4275  -4.4398  -4.4502  -4.4585  -4.4643  -4.4674  -4.4677  -4.4649  -4.4589  -4.4496  -4.4365  -4.4194  -4.3977  -4.3704  -4.3366  -4.2953  -4.2452  -4.1856  -4.1160  -4.0364  -3.9473  -3.8495  -3.7439  -3.6316  -3.5137  -3.3909  -3.2640  -3.1340  -3.0016  -2.8680  -2.7342  -2.6014  -2.4708  -2.3438  -2.2215  -2.1049  -1.9948  -1.8920  -1.7968  -1.7097  -1.6307  -1.5599  -1.4971  -1.4420  -1.3940  -1.3526  -1.3171  -1.2867  -1.2607  -1.2385  -1.2196  -1.2032  -1.1891  -1.1769  -1.1661  -1.1566
3.420  -4.0441  -4.0464  -4.0495  -4.0535  -4.0583  -4.0640  -4.0707  -4.0781  -4.0865  -4.0957  -4.1056  -4.1163  -4.1277  -4.1399  -4.1528  -4.1664  -4.1807  -4.1957  -4.2114  -4.2278  -4.2449  -4.2626  -4.2808  -4.2994  -4.3184  -4.3376  -4.3570  -4.3762  -4.3953  -4.4138  -4.4318  -4.4489  -4.4648  -4.4794  -4.4925  -4.5037  -4.5128  -4.5196  -4.5239  -4.5254  -4.5241  -4.5199  -4.5125  -4.5016  -4.4869  -4.4677  -4.4433  -4.4125  -4.3744  -4.3277  -4.2716  -4.2053  -4.1288  -4.0423  -3.9465  -3.8422  -3.7305  -3.6123  -3.4886  -3.3604  -3.2285  -3.0941  -2.9582  -2.8219  -2.6866  -2.5535  -2.4238  -2.2988  -2.1793  -2.0664  -1.9606  -1.8625  -1.7725  -1.6907  -1.6173  -1.5522  -1.4951  -1.4455  -1.4029  -1.3664  -1.3354  -1.3091  -1.2869  -1.2679  -1.2518  -1.2380  -1.2261  -1.2158  -1.2068  -1.1988  -1.1916
3.410  -4.0689  -4.0745  -4.0809  -4.0882  -4.0963  -4.1053  -4.1150  -4.1255  -4.1367  -4.1487  -4.1613  -4.1746  -4.1887  -4.2035  -4.2190  -4.2351  -4.2520  -4.2695  -4.2877  -4.3064  -4.3255  -4.3450  -4.3648  -4.3848  -4.4047  -4.4245  -4.4439  -4.4628  -4.4810  -4.4982  -4.5143  -4.5290  -4.5420  -4.5533  -4.5625  -4.5695  -4.5741  -4.5762  -4.5757  -4.5725  -4.5664  -4.5571  -4.5442  -4.5270  -4.5048  -4.4766  -4.4413  -4.3977  -4.3448  -4.2819  -4.2087  -4.1253  -4.0321  -3.9298  -3.8193  -3.7016  -3.5776  -3.4485  -3.3154  -3.1793  -3.0415  -2.9033  -2.7658  -2.6305  -2.4985  -2.3711  -2.2492  -2.1337  -2.0253  -1.9245  -1.8319  -1.7475  -1.6718  -1.6045  -1.5456  -1.4945  -1.4507  -1.4134  -1.3819  -1.3553  -1.3330  -1.3141  -1.2982  -1.2847  -1.2732  -1.2633  -1.2547  -1.2472  -1.2405  -1.2346  -1.2292
3.400  -4.1070  -4.1158  -4.1254  -4.1357  -4.1468  -4.1585  -4.1710  -4.1841  -4.1980  -4.2125  -4.2278  -4.2438  -4.2604  -4.2778  -4.2958  -4.3144  -4.3335  -4.3532  -4.3731  -4.3934  -4.4138  -4.4343  -4.4546  -4.4747  -4.4942  -4.5131  -4.5312  -4.5482  -4.5639  -4.5782  -4.5908  -4.6015  -4.6103  -4.6169  -4.6214  -4.6235  -4.6233  -4.6207  -4.6155  -4.6073  -4.5957  -4.5801  -4.5598  -4.5336  -4.5007  -4.4598  -4.4099  -4.3504  -4.2806  -4.2006  -4.1106  -4.0110  -3.9025  -3.7859  -3.6623  -3.5329  -3.3988  -3.2613  -3.1219  -2.9819  -2.8425  -2.7051  -2.5710  -2.4414  -2.3172  -2.1994  -2.0885  -1.9853  -1.8901  -1.8034  -1.7255  -1.6563  -1.5957  -1.5433  -1.4984  -1.4604  -1.4284  -1.4016  -1.3792  -1.3604  -1.3447  -1.3315  -1.3203  -1.3107  -1.3026  -1.2955  -1.2892  -1.2837  -1.2788  -1.2743  -1.2702
3.390  -4.1535  -4.1650  -4.1773  -4.1902  -4.2038  -4.2181  -4.2331  -4.2488  -4.2652  -4.2823  -4.3001  -4.3184  -4.3374  -4.3569  -4.3768  -4.3971  -4.4176  -4.4383  -4.4591  -4.4797  -4.5000  -4.5199  -4.5391  -4.5575  -4.5749  -4.5911  -4.6058  -4.6190  -4.6304  -4.6399  -4.6475  -4.6530  -4.6563  -4.6576  -4.6568  -4.6537  -4.6481  -4.6398  -4.6283  -4.6131  -4.5932  -4.5678  -4.5359  -4.4963  -4.4478  -4.3897  -4.3214  -4.2427  -4.1537  -4.0548  -3.9467  -3.8301  -3.7062  -3.5763  -3.4415  -3.3034  -3.1633  -3.0225  -2.8823  -2.7441  -2.6092  -2.4786  -2.3534  -2.2345  -2.1225  -2.0180  -1.9216  -1.8337  -1.7545  -1.6843  -1.6229  -1.5699  -1.5246  -1.4864  -1.4544  -1.4277  -1.4055  -1.3871  -1.3718  -1.3590  -1.3482  -1.3391  -1.3314  -1.3248  -1.3191  -1.3140  -1.3095  -1.3055  -1.3018  -1.2984  -1.2952
3.380  -4.2099  -4.2240  -4.2388  -4.2543  -4.2704  -4.2873  -4.3048  -4.3229  -4.3417  -4.3610  -4.3808  -4.4010  -4.4216  -4.4424  -4.4633  -4.4842  -4.5050  -4.5254  -4.5455  -4.5649  -4.5834  -4.6010  -4.6173  -4.6323  -4.6456  -4.6573  -4.6672  -4.6751  -4.6811  -4.6851  -4.6871  -4.6872  -4.6854  -4.6815  -4.6753  -4.6666  -4.6548  -4.6394  -4.6196  -4.5946  -4.5632  -4.5242  -4.4766  -4.4194  -4.3520  -4.2742  -4.1860  -4.0878  -3.9800  -3.8636  -3.7396  -3.6094  -3.4745  -3.3361  -3.1956  -3.0544  -2.9138  -2.7751  -2.6396  -2.5084  -2.3825  -2.2628  -2.1500  -2.0446  -1.9474  -1.8587  -1.7789  -1.7081  -1.6463  -1.5930  -1.5478  -1.5096  -1.4778  -1.4514  -1.4296  -1.4116  -1.3967  -1.3843  -1.3740  -1.3654  -1.3581  -1.3519  -1.3466  -1.3420  -1.3379  -1.3343  -1.3310  -1.3280  -1.3252  -1.3226  -1.3200
3.370  -4.2761  -4.2927  -4.3101  -4.3280  -4.3466  -4.3658  -4.3854  -4.4055  -4.4260  -4.4468  -4.4678  -4.4889  -4.5100  -4.5308  -4.5514  -4.5715  -4.5909  -4.6094  -4.6269  -4.6432  -4.6581  -4.6715  -4.6831  -4.6930  -4.7010  -4.7070  -4.7113  -4.7137  -4.7143  -4.7131  -4.7102  -4.7053  -4.6983  -4.6889  -4.6766  -4.6609  -4.6410  -4.6160  -4.5847  -4.5460  -4.4987  -4.4420  -4.3751  -4.2978  -4.2101  -4.1122  -4.0047  -3.8885  -3.7646  -3.6345  -3.4995  -3.3611  -3.2205  -3.0792  -2.9384  -2.7994  -2.6635  -2.5318  -2.4055  -2.2852  -2.1719  -2.0660  -1.9683  -1.8792  -1.7992  -1.7284  -1.6667  -1.6137  -1.5687  -1.5310  -1.4997  -1.4738  -1.4525  -1.4350  -1.4206  -1.4088  -1.3989  -1.3907  -1.3839  -1.3781  -1.3731  -1.3689  -1.3652  -1.3619  -1.3589  -1.3563  -1.3538  -1.3515  -1.3493  -1.3472  -1.3452
3.360  -4.3523  -4.3713  -4.3908  -4.4109  -4.4313  -4.4521  -4.4731  -4.4943  -4.5155  -4.5367  -4.5576  -4.5781  -4.5981  -4.6174  -4.6358  -4.6531  -4.6692  -4.6839  -4.6970  -4.7084  -4.7180  -4.7258  -4.7317  -4.7359  -4.7383  -4.7391  -4.7383  -4.7359  -4.7318  -4.7260  -4.7182  -4.7082  -4.6954  -4.6793  -4.6591  -4.6338  -4.6024  -4.5636  -4.5163  -4.4595  -4.3927  -4.3155  -4.2280  -4.1303  -4.0231  -3.9070  -3.7833  -3.6533  -3.5185  -3.3801  -3.2396  -3.0982  -2.9572  -2.8180  -2.6818  -2.5498  -2.4231  -2.3025  -2.1889  -2.0829  -1.9851  -1.8962  -1.8165  -1.7461  -1.6850  -1.6326  -1.5884  -1.5516  -1.5210  -1.4959  -1.4753  -1.4584  -1.4446  -1.4333  -1.4240  -1.4162  -1.4098  -1.4044  -1.3998  -1.3958  -1.3924  -1.3894  -1.3868  -1.3844  -1.3823  -1.3802  -1.3784  -1.3765  -1.3748  -1.3731  -1.3714
3.350  -4.4377  -4.4584  -4.4795  -4.5007  -4.5220  -4.5433  -4.5645  -4.5854  -4.6058  -4.6256  -4.6447  -4.6628  -4.6798  -4.6955  -4.7098  -4.7225  -4.7335  -4.7427  -4.7501  -4.7557  -4.7596  -4.7619  -4.7626  -4.7619  -4.7598  -4.7562  -4.7512  -4.7446  -4.7361  -4.7255  -4.7123  -4.6957  -4.6751  -4.6494  -4.6176  -4.5784  -4.5307  -4.4736  -4.4065  -4.3292  -4.2416  -4.1440  -4.0368  -3.9209  -3.7973  -3.6675  -3.5328  -3.3946  -3.2541  -3.1125  -2.9713  -2.8318  -2.6953  -2.5630  -2.4361  -2.3154  -2.2018  -2.0960  -1.9987  -1.9104  -1.8315  -1.7621  -1.7021  -1.6510  -1.6080  -1.5723  -1.5428  -1.5187  -1.4990  -1.4829  -1.4698  -1.4590  -1.4502  -1.4429  -1.4369  -1.4318  -1.4276  -1.4240  -1.4208  -1.4181  -1.4157  -1.4136  -1.4117  -1.4099  -1.4083  -1.4067  -1.4052  -1.4037  -1.4023  -1.4008  -1.3994
3.340  -4.5299  -4.5513  -4.5726  -4.5937  -4.6145  -4.6347  -4.6542  -4.6729  -4.6906  -4.7071  -4.7223  -4.7360  -4.7481  -4.7585  -4.7672  -4.7740  -4.7792  -4.7827  -4.7847  -4.7853  -4.7846  -4.7826  -4.7794  -4.7749  -4.7692  -4.7620  -4.7530  -4.7420  -4.7283  -4.7113  -4.6902  -4.6640  -4.6316  -4.5918  -4.5434  -4.4857  -4.4180  -4.3403  -4.2525  -4.1548  -4.0476  -3.9318  -3.8084  -3.6786  -3.5440  -3.4056  -3.2649  -3.1230  -2.9814  -2.8415  -2.7047  -2.5722  -2.4453  -2.3248  -2.2116  -2.1064  -2.0100  -1.9229  -1.8454  -1.7776  -1.7193  -1.6699  -1.6285  -1.5943  -1.5662  -1.5433  -1.5246  -1.5094  -1.4971  -1.4870  -1.4788  -1.4720  -1.4664  -1.4617  -1.4577  -1.4544  -1.4515  -1.4490  -1.4469  -1.4450  -1.4432  -1.4417  -1.4402  -1.4389  -1.4375  -1.4363  -1.4351  -1.4338  -1.4326  -1.4314  -1.4301
3.330  -4.6246  -4.6451  -4.6650  -4.6841  -4.7023  -4.7194  -4.7353  -4.7498  -4.7628  -4.7741  -4.7838  -4.7917  -4.7980  -4.8026  -4.8057  -4.8073  -4.8077  -4.8069  -4.8050  -4.8020  -4.7981  -4.7930  -4.7868  -4.7792  -4.7700  -4.7585  -4.7445  -4.7271  -4.7054  -4.6786  -4.6455  -4.6048  -4.5556  -4.4971  -4.4288  -4.3506  -4.2625  -4.1646  -4.0574  -3.9415  -3.8180  -3.6881  -3.5531  -3.4143  -3.2731  -3.1306  -2.9885  -2.8481  -2.7110  -2.5785  -2.4517  -2.3317  -2.2193  -2.1153  -2.0204  -1.9350  -1.8596  -1.7940  -1.7380  -1.6907  -1.6514  -1.6190  -1.5926  -1.5710  -1.5536  -1.5394  -1.5279  -1.5186  -1.5109  -1.5046  -1.4994  -1.4951  -1.4914  -1.4884  -1.4858  -1.4835  -1.4815  -1.4798  -1.4783  -1.4769  -1.4756  -1.4744  -1.4732  -1.4721  -1.4711  -1.4700  -1.4690  -1.4679  -1.4669  -1.4658  -1.4646
3.320  -4.7156  -4.7331  -4.7494  -4.7645  -4.7781  -4.7902  -4.8007  -4.8095  -4.8166  -4.8221  -4.8261  -4.8287  -4.8301  -4.8303  -4.8294  -4.8276  -4.8249  -4.8214  -4.8170  -4.8117  -4.8052  -4.7974  -4.7880  -4.7763  -4.7620  -4.7441  -4.7220  -4.6946  -4.6607  -4.6192  -4.5691  -4.5097  -4.4407  -4.3620  -4.2736  -4.1755  -4.0681  -3.9519  -3.8280  -3.6976  -3.5619  -3.4223  -3.2801  -3.1367  -2.9938  -2.8529  -2.7156  -2.5833  -2.4570  -2.3379  -2.2268  -2.1246  -2.0318  -1.9489  -1.8762  -1.8134  -1.7601  -1.7154  -1.6785  -1.6483  -1.6237  -1.6037  -1.5876  -1.5745  -1.5640  -1.5553  -1.5483  -1.5425  -1.5377  -1.5338  -1.5304  -1.5276  -1.5252  -1.5232  -1.5214  -1.5198  -1.5184  -1.5172  -1.5160  -1.5149  -1.5139  -1.5130  -1.5121  -1.5112  -1.5103  -1.5094  -1.5085  -1.5075  -1.5066  -1.5056  -1.5045
3.310  -4.7950  -4.8076  -4.8186  -4.8281  -4.8360  -4.8422  -4.8470  -4.8504  -4.8526  -4.8537  -4.8537  -4.8528  -4.8512  -4.8488  -4.8458  -4.8421  -4.8376  -4.8323  -4.8259  -4.8181  -4.8086  -4.7970  -4.7825  -4.7644  -4.7420  -4.7140  -4.6794  -4.6371  -4.5862  -4.5262  -4.4567  -4.3776  -4.2889  -4.1906  -4.0827  -3.9660  -3.8412  -3.7097  -3.5728  -3.4318  -3.2884  -3.1439  -3.0001  -2.8588  -2.7215  -2.5896  -2.4642  -2.3465  -2.2374  -2.1375  -2.0475  -1.9677  -1.8983  -1.8388  -1.7887  -1.7470  -1.7128  -1.6850  -1.6624  -1.6441  -1.6294  -1.6175  -1.6078  -1.6000  -1.5936  -1.5883  -1.5839  -1.5803  -1.5773  -1.5747  -1.5725  -1.5707  -1.5690  -1.5676  -1.5664  -1.5652  -1.5642  -1.5632  -1.5624  -1.5615  -1.5607  -1.5599  -1.5591  -1.5584  -1.5576  -1.5568  -1.5559  -1.5551  -1.5542  -1.5532  -1.5522
3.300  -4.8577  -4.8646  -4.8701  -4.8742  -4.8771  -4.8789  -4.8798  -4.8798  -4.8791  -4.8778  -4.8759  -4.8734  -4.8705  -4.8669  -4.8627  -4.8577  -4.8517  -4.8443  -4.8352  -4.8238  -4.8096  -4.7916  -4.7691  -4.7409  -4.7059  -4.6632  -4.6119  -4.5516  -4.4819  -4.4028  -4.3139  -4.2152  -4.1067  -3.9889  -3.8628  -3.7297  -3.5911  -3.4485  -3.3036  -3.1581  -3.0137  -2.8722  -2.7352  -2.6041  -2.4802  -2.3644  -2.2577  -2.1607  -2.0741  -1.9980  -1.9323  -1.8766  -1.8301  -1.7918  -1.7605  -1.7351  -1.7146  -1.6982  -1.6849  -1.6741  -1.6654  -1.6583  -1.6525  -1.6478  -1.6438  -1.6405  -1.6377  -1.6354  -1.6334  -1.6317  -1.6302  -1.6289  -1.6278  -1.6267  -1.6258  -1.6249  -1.6241  -1.6233  -1.6226  -1.6219  -1.6211  -1.6204  -1.6197  -1.6189  -1.6182  -1.6174  -1.6165  -1.6157  -1.6147  -1.6138  -1.6127
3.290  -4.8925  -4.8946  -4.8958  -4.8962  -4.8958  -4.8949  -4.8934  -4.8914  -4.8890  -4.8861  -4.8828  -4.8790  -4.8745  -4.8692  -4.8629  -4.8551  -4.8453  -4.8330  -4.8175  -4.7979  -4.7733  -4.7426  -4.7046  -4.6585  -4.6036  -4.5396  -4.4662  -4.3832  -4.2904  -4.1877  -4.0752  -3.9538  -3.8245  -3.6886  -3.5479  -3.4037  -3.2578  -3.1120  -2.9682  -2.8279  -2.6930  -2.5646  -2.4440  -2.3322  -2.2299  -2.1378  -2.0563  -1.9854  -1.9249  -1.8742  -1.8321  -1.7978  -1.7699  -1.7475  -1.7294  -1.7149  -1.7031  -1.6937  -1.6860  -1.6798  -1.6746  -1.6704  -1.6669  -1.6640  -1.6615  -1.6595  -1.6577  -1.6562  -1.6548  -1.6537  -1.6527  -1.6518  -1.6509  -1.6502  -1.6495  -1.6488  -1.6482  -1.6476  -1.6470  -1.6464  -1.6458  -1.6452  -1.6445  -1.6439  -1.6432  -1.6425  -1.6417  -1.6409  -1.6401  -1.6392  -1.6382
3.280  -4.9118  -4.9112  -4.9100  -4.9084  -4.9064  -4.9040  -4.9013  -4.8982  -4.8948  -4.8909  -4.8863  -4.8809  -4.8742  -4.8659  -4.8553  -4.8419  -4.8248  -4.8033  -4.7761  -4.7423  -4.7008  -4.6508  -4.5918  -4.5236  -4.4459  -4.3585  -4.2610  -4.1536  -4.0366  -3.9110  -3.7780  -3.6393  -3.4963  -3.3506  -3.2041  -3.0585  -2.9158  -2.7777  -2.6456  -2.5209  -2.4046  -2.2976  -2.2007  -2.1144  -2.0388  -1.9739  -1.9192  -1.8737  -1.8365  -1.8062  -1.7819  -1.7623  -1.7466  -1.7340  -1.7239  -1.7156  -1.7090  -1.7035  -1.6990  -1.6953  -1.6923  -1.6897  -1.6875  -1.6857  -1.6841  -1.6828  -1.6816  -1.6806  -1.6797  -1.6789  -1.6782  -1.6775  -1.6769  -1.6763  -1.6758  -1.6753  -1.6748  -1.6743  -1.6738  -1.6733  -1.6728  -1.6722  -1.6717  -1.6711  -1.6705  -1.6698  -1.6691  -1.6684  -1.6676  -1.6668  -1.6658
3.270  -4.9231  -4.9211  -4.9188  -4.9163  -4.9135  -4.9105  -4.9072  -4.9034  -4.8988  -4.8932  -4.8862  -4.8771  -4.8655  -4.8506  -4.8316  -4.8076  -4.7773  -4.7399  -4.6942  -4.6398  -4.5763  -4.5033  -4.4205  -4.3277  -4.2248  -4.1119  -3.9899  -3.8598  -3.7231  -3.5814  -3.4363  -3.2895  -3.1429  -2.9983  -2.8577  -2.7226  -2.5944  -2.4744  -2.3634  -2.2624  -2.1718  -2.0921  -2.0232  -1.9649  -1.9163  -1.8765  -1.8441  -1.8180  -1.7971  -1.7804  -1.7670  -1.7562  -1.7475  -1.7405  -1.7347  -1.7300  -1.7262  -1.7230  -1.7203  -1.7180  -1.7161  -1.7145  -1.7132  -1.7120  -1.7109  -1.7100  -1.7093  -1.7085  -1.7079  -1.7073  -1.7068  -1.7063  -1.7059  -1.7054  -1.7050  -1.7046  -1.7042  -1.7038  -1.7034  -1.7029  -1.7025  -1.7020  -1.7015  -1.7010  -1.7004  -1.6998  -1.6992  -1.6985  -1.6978  -1.6970  -1.6961
3.260  -4.9313  -4.9289  -4.9264  -4.9237  -4.9207  -4.9170  -4.9125  -4.9066  -4.8989  -4.8890  -4.8760  -4.8593  -4.8379  -4.8108  -4.7769  -4.7351  -4.6846  -4.6251  -4.5562  -4.4775  -4.3888  -4.2899  -4.1807  -4.0618  -3.9344  -3.7997  -3.6594  -3.5151  -3.3684  -3.2212  -3.0753  -2.9328  -2.7953  -2.6643  -2.5412  -2.4269  -2.3223  -2.2281  -2.1448  -2.0726  -2.0112  -1.9599  -1.9178  -1.8837  -1.8562  -1.8341  -1.8165  -1.8024  -1.7912  -1.7821  -1.7748  -1.7688  -1.7639  -1.7599  -1.7566  -1.7539  -1.7516  -1.7496  -1.7480  -1.7466  -1.7454  -1.7443  -1.7434  -1.7427  -1.7420  -1.7413  -1.7408  -1.7403  -1.7399  -1.7394  -1.7390  -1.7387  -1.7383  -1.7380  -1.7376  -1.7373  -1.7369  -1.7366  -1.7362  -1.7358  -1.7354  -1.7350  -1.7346  -1.7341  -1.7336  -1.7330  -1.7324  -1.7318  -1.7311  -1.7303  -1.7294
3.250  -4.9410  -4.9387  -4.9360  -4.9325  -4.9278  -4.9215  -4.9130  -4.9018  -4.8871  -4.8681  -4.8437  -4.8128  -4.7742  -4.7272  -4.6712  -4.6057  -4.5306  -4.4453  -4.3497  -4.2437  -4.1277  -4.0026  -3.8698  -3.7308  -3.5874  -3.4410  -3.2936  -3.1469  -3.0030  -2.8636  -2.7305  -2.6049  -2.4879  -2.3805  -2.2833  -2.1971  -2.1221  -2.0582  -2.0047  -1.9609  -1.9252  -1.8966  -1.8738  -1.8555  -1.8410  -1.8294  -1.8200  -1.8125  -1.8064  -1.8014  -1.7973  -1.7940  -1.7912  -1.7888  -1.7869  -1.7852  -1.7838  -1.7826  -1.7815  -1.7806  -1.7799  -1.7792  -1.7786  -1.7780  -1.7776  -1.7771  -1.7768  -1.7764  -1.7761  -1.7758  -1.7755  -1.7752  -1.7749  -1.7746  -1.7743  -1.7740  -1.7737  -1.7734  -1.7731  -1.7728  -1.7724  -1.7720  -1.7716  -1.7711  -1.7707  -1.7701  -1.7696  -1.7689  -1.7682  -1.7675  -1.7666
3.240  -4.9540  -4.9505  -4.9455  -4.9385  -4.9289  -4.9160  -4.8990  -4.8769  -4.8486  -4.8128  -4.7686  -4.7154  -4.6528  -4.5805  -4.4981  -4.4053  -4.3020  -4.1885  -4.0655  -3.9344  -3.7967  -3.6540  -3.5082  -3.3607  -3.2136  -3.0687  -2.9281  -2.7933  -2.6659  -2.5468  -2.4371  -2.3377  -2.2492  -2.1721  -2.1063  -2.0513  -2.0062  -1.9696  -1.9403  -1.9169  -1.8983  -1.8836  -1.8718  -1.8623  -1.8547  -1.8486  -1.8436  -1.8394  -1.8361  -1.8333  -1.8309  -1.8289  -1.8273  -1.8259  -1.8247  -1.8236  -1.8227  -1.8220  -1.8213  -1.8207  -1.8202  -1.8198  -1.8193  -1.8190  -1.8186  -1.8183  -1.8181  -1.8178  -1.8176  -1.8173  -1.8171  -1.8169  -1.8166  -1.8164  -1.8162  -1.8159  -1.8156  -1.8154  -1.8151  -1.8147  -1.8144  -1.8140  -1.8136  -1.8132  -1.8127  -1.8122  -1.8117  -1.8110  -1.8104  -1.8096  -1.8087
3.230  -4.9662  -4.9582  -4.9469  -4.9317  -4.9115  -4.8852  -4.8516  -4.8097  -4.7588  -4.6985  -4.6284  -4.5483  -4.4578  -4.3568  -4.2454  -4.1242  -3.9946  -3.8581  -3.7164  -3.5710  -3.4238  -3.2765  -3.1312  -2.9898  -2.8540  -2.7253  -2.6047  -2.4934  -2.3923  -2.3022  -2.2237  -2.1568  -2.1009  -2.0552  -2.0182  -1.9887  -1.9652  -1.9465  -1.9318  -1.9200  -1.9106  -1.9031  -1.8970  -1.8920  -1.8879  -1.8846  -1.8818  -1.8795  -1.8776  -1.8759  -1.8746  -1.8734  -1.8724  -1.8715  -1.8707  -1.8701  -1.8695  -1.8690  -1.8686  -1.8682  -1.8679  -1.8676  -1.8673  -1.8670  -1.8668  -1.8666  -1.8664  -1.8662  -1.8660  -1.8658  -1.8656  -1.8654  -1.8652  -1.8650  -1.8648  -1.8646  -1.8644  -1.8641  -1.8638  -1.8635  -1.8632  -1.8628  -1.8624  -1.8620  -1.8615  -1.8610  -1.8604  -1.8598  -1.8591  -1.8582  -1.8573
3.220  -4.9672  -4.9485  -4.9237  -4.8917  -4.8515  -4.8024  -4.7439  -4.6757  -4.5974  -4.5089  -4.4097  -4.3002  -4.1808  -4.0527  -3.9174  -3.7765  -3.6319  -3.4851  -3.3380  -3.1927  -3.0511  -2.9148  -2.7854  -2.6640  -2.5517  -2.4496  -2.3587  -2.2795  -2.2123  -2.1563  -2.1106  -2.0739  -2.0446  -2.0214  -2.0031  -1.9886  -1.9771  -1.9679  -1.9606  -1.9546  -1.9498  -1.9459  -1.9426  -1.9399  -1.9377  -1.9358  -1.9343  -1.9329  -1.9318  -1.9308  -1.9300  -1.9292  -1.9286  -1.9281  -1.9276  -1.9272  -1.9268  -1.9265  -1.9262  -1.9260  -1.9257  -1.9255  -1.9254  -1.9252  -1.9250  -1.9249  -1.9247  -1.9246  -1.9244  -1.9243  -1.9241  -1.9239  -1.9238  -1.9236  -1.9234  -1.9232  -1.9229  -1.9227  -1.9224  -1.9221  -1.9217  -1.9214  -1.9209  -1.9205  -1.9200  -1.9194  -1.9188  -1.9180  -1.9172  -1.9163  -1.9152
3.210  -4.9345  -4.8956  -4.8479  -4.7909  -4.7242  -4.6477  -4.5608  -4.4636  -4.3559  -4.2383  -4.1119  -3.9780  -3.8383  -3.6946  -3.5487  -3.4025  -3.2580  -3.1171  -2.9814  -2.8522  -2.7306  -2.6180  -2.5157  -2.4247  -2.3458  -2.2791  -2.2238  -2.1790  -2.1431  -2.1147  -2.0923  -2.0746  -2.0607  -2.0497  -2.0410  -2.0340  -2.0283  -2.0238  -2.0200  -2.0170  -2.0144  -2.0123  -2.0106  -2.0091  -2.0078  -2.0068  -2.0058  -2.0051  -2.0044  -2.0038  -2.0033  -2.0029  -2.0025  -2.0022  -2.0019  -2.0016  -2.0014  -2.0012  -2.0010  -2.0008  -2.0007  -2.0006  -2.0004  -2.0003  -2.0002  -2.0001  -2.0000  -1.9998  -1.9997  -1.9996  -1.9994  -1.9993  -1.9991  -1.9989  -1.9987  -1.9984  -1.9981  -1.9978  -1.9975  -1.9971  -1.9967  -1.9963  -1.9958  -1.9952  -1.9945  -1.9938  -1.9930  -1.9920  -1.9909  -1.9897  -1.9883
3.200  -4.8430  -4.7781  -4.7034  -4.6186  -4.5237  -4.4185  -4.3035  -4.1795  -4.0478  -3.9100  -3.7681  -3.6244  -3.4811  -3.3406  -3.2044  -3.0735  -2.9485  -2.8304  -2.7204  -2.6201  -2.5310  -2.4540  -2.3892  -2.3359  -2.2930  -2.2589  -2.2321  -2.2111  -2.1947  -2.1819  -2.1718  -2.1638  -2.1575  -2.1525  -2.1484  -2.1451  -2.1424  -2.1402  -2.1384  -2.1368  -2.1356  -2.1345  -2.1336  -2.1328  -2.1321  -2.1316  -2.1311  -2.1306  -2.1303  -2.1300  -2.1297  -2.1294  -2.1292  -2.1290  -2.1289  -2.1287  -2.1286  -2.1284  -2.1283  -2.1282  -2.1281  -2.1279  -2.1278  -2.1277  -2.1275  -2.1273  -2.1271  -2.1269  -2.1267  -2.1264  -2.1260  -2.1257  -2.1252  -2.1247  -2.1242  -2.1236  -2.1229  -2.1220  -2.1211  -2.1201  -2.1189  -2.1176  -2.1161  -2.1144  -2.1125  -2.1103  -2.1079  -2.1053  -2.1023  -2.0992  -2.0957
#
# AESOPUS computation completed
