#  Calculations performed with AESOPUS via the web interface: http://stev.oapd.inaf.it/aesopus
#  Date:  11/07/2019; Central European Time  01:27:27
#  Tables of Rosseland mean opacities
#  Reference paper: Marigo & Aringer (2009, A&A, 508, 1539)
#
#  Definitions:
#  The base-10 logarithm of the Rosseland mean opacity [cm**2/g] as a function
#  of log10(T) for columns of constant log10(R), where:
#  R=density[g/cm**3]/T6**3, T6=1.e-6*T[K]
#
#  Ranges of state parameters
#
#  log10(T) range: nt=  67  values from  4.500  to  3.200
#  log10(T) = [3.200,3.700] in steps of  0.010
#  log10(T) = ]3.700,4.500] in steps of  0.050
#
#  log10(R) range: nre= 91  values from -8.000  to  1.000
#                           in steps of  0.100
#
#
#  Composition parameters:
#
#       X     = hydrogen mass fraction
#               mh =  1 values from 0.700 to 0.700 in steps of 0.200
#       Zref  = 5.000000E-04  reference metallicity
#       Z     = actual metallicity
#
#       Reference solar mixture: Grevesse & Sauval 1998 ---- Zsun =  0.01696  (C/O)sun =  0.48978
#
#     Zi   element   (ni/nz)sun         (Xi/Z)sun         <Ai>
#
#      3     Li     9.323684E-09     3.757845E-09     6.941739E+00
#      4     Be     1.859891E-08     9.731966E-09     9.012183E+00
#      5     B      2.627166E-07     1.649247E-07     1.081222E+01
#      6     C      2.451814E-01     1.709837E-01     1.201114E+01
#      7     N      6.158679E-02     5.008508E-02     1.400676E+01
#      8     O      5.005962E-01     4.650221E-01     1.599938E+01
#      9     F      2.688361E-05     2.965430E-05     1.899841E+01
#     10     Ne     8.904049E-02     1.042809E-01     2.017132E+01
#     11     Na     1.583024E-03     2.113028E-03     2.298977E+01
#     12     Mg     2.814411E-02     3.972350E-02     2.430955E+01
#     13     Al     2.184679E-03     3.422452E-03     2.698154E+01
#     14     Si     2.627166E-02     4.284049E-02     2.808561E+01
#     15     P      2.086832E-04     3.752879E-04     3.097377E+01
#     16     S      1.583024E-02     2.947097E-02     3.206445E+01
#     17     Cl     2.341464E-04     4.820356E-04     3.545753E+01
#     18     Ar     1.859891E-03     4.313819E-03     3.994766E+01
#     19     K      9.758600E-05     2.215449E-04     3.910130E+01
#     20     Ca     1.696632E-03     3.947852E-03     4.007654E+01
#     21     Sc     1.094933E-06     2.857969E-06     4.495592E+01
#     22     Ti     7.753317E-05     2.155336E-04     4.787893E+01
#     23     V      7.404360E-06     2.189994E-05     5.094157E+01
#     24     Cr     3.463279E-04     1.045572E-03     5.199762E+01
#     25     Mn     1.817136E-04     5.796206E-04     5.493805E+01
#     26     Fe     2.341464E-02     7.592291E-02     5.584731E+01
#     27     Co     6.158679E-05     2.107320E-04     5.893319E+01
#     28     Ni     1.316702E-03     4.487945E-03     5.870525E+01
#     29     Cu     1.201123E-05     4.431668E-05     6.354723E+01
#     30     Zn     2.947729E-05     1.119080E-04     6.538687E+01
#     31     Ga     5.616782E-07     2.273583E-06     6.971723E+01
#     32     Ge     1.903214E-06     8.025819E-06     7.263045E+01
#     33     As     1.736151E-07     7.552272E-07     7.492160E+01
#     34     Se     1.903214E-06     8.728593E-06     7.899028E+01
#     35     Br     3.158548E-07     1.465389E-06     7.990652E+01
#     36     Kr     1.511428E-06     7.353928E-06     8.380092E+01
#     37     Rb     2.947729E-07     1.462765E-06     8.546807E+01
#     38     Sr     6.910151E-07     3.515251E-06     8.761646E+01
#     39     Y      1.287027E-07     6.643562E-07     8.890587E+01
#     40     Zr     2.947729E-07     1.561272E-06     9.122375E+01
#     41     Nb     1.947545E-08     1.050549E-07     9.290638E+01
#     42     Mo     6.158679E-08     3.428800E-07     9.588960E+01
#     43     Tc     0.000000E+00     0.000000E+00     9.690639E+01
#     44     Ru     5.122566E-08     3.005927E-07     1.010666E+02
#     45     Rh     9.758600E-09     5.830546E-08     1.029055E+02
#     46     Pd     3.626499E-08     2.240978E-07     1.064307E+02
#     47     Ag     6.448928E-09     4.038921E-08     1.078685E+02
#     48     Cd     4.360011E-08     2.845931E-07     1.124227E+02
#     49     In     3.384446E-08     2.256221E-07     1.148183E+02
#     50     Sn     7.404360E-08     5.104404E-07     1.187338E+02
#     51     Sb     7.404360E-09     5.234457E-08     1.217590E+02
#     52     Te     1.287027E-07     9.537093E-07     1.276278E+02
#     53     I      2.395452E-08     1.765011E-07     1.269045E+02
#     54     Xe     1.094933E-07     8.346586E-07     1.312920E+02
#     55     Cs     9.990507E-09     7.709272E-08     1.329054E+02
#     56     Ba     9.990507E-08     7.965774E-07     1.373275E+02
#     57     La     1.094933E-08     8.830597E-08     1.389055E+02
#     58     Ce     2.814411E-08     2.289570E-07     1.401146E+02
#     59     Pr     3.796536E-09     3.106028E-08     1.409077E+02
#     60     Nd     2.341464E-08     1.960919E-07     1.442411E+02
#     61     Pm     0.000000E+00     0.000000E+00     1.449128E+02
#     62     Sm     7.576830E-09     6.614742E-08     1.503635E+02
#     63     Eu     2.395452E-09     2.113547E-08     1.519642E+02
#     64     Gd     9.758600E-09     8.909990E-08     1.572558E+02
#     65     Tb     5.881492E-10     5.427051E-09     1.589254E+02
#     66     Dy     1.022322E-08     9.645489E-08     1.625001E+02
#     67     Ho     1.347372E-09     1.290242E-08     1.649304E+02
#     68     Er     6.302133E-09     6.120210E-08     1.672614E+02
#     69     Tm     7.404360E-10     7.262536E-09     1.689342E+02
#     70     Yb     8.904049E-09     8.945589E-08     1.730367E+02
#     71     Lu     8.503301E-10     8.638257E-09     1.749667E+02
#     72     Hf     5.616782E-09     5.820847E-08     1.784907E+02
#     73     Ta     5.488928E-10     5.766657E-09     1.809479E+02
#     74     W      9.540860E-09     1.018390E-07     1.838415E+02
#     75     Re     1.410872E-09     1.525392E-08     1.862134E+02
#     76     Os     2.086832E-08     2.304976E-07     1.902374E+02
#     77     Ir     1.658011E-08     1.850377E-07     1.922161E+02
#     78     Pt     4.671835E-08     5.291572E-07     1.950806E+02
#     79     Au     7.576830E-09     8.664890E-08     1.969666E+02
#     80     Hg     9.990507E-09     1.163576E-07     2.005969E+02
#     81     Tl     5.881492E-09     6.979384E-08     2.043838E+02
#     82     Pb     6.599143E-08     7.939617E-07     2.072187E+02
#     83     Bi     3.796536E-09     4.606554E-08     2.089804E+02
#     84     Po     0.000000E+00     0.000000E+00     2.089824E+02
#     85     At     0.000000E+00     0.000000E+00     2.099870E+02
#     86     Rn     0.000000E+00     0.000000E+00     2.220176E+02
#     87     Fr     0.000000E+00     0.000000E+00     2.230198E+02
#     88     Ra     0.000000E+00     0.000000E+00     2.260254E+02
#     89     Ac     0.000000E+00     0.000000E+00     2.270278E+02
#     90     Th     9.105159E-10     1.226676E-08     2.320381E+02
#     91     Pa     0.000000E+00     0.000000E+00     2.310359E+02
#     92     U      2.341464E-10     3.235939E-09     2.380289E+02
#     93     Np     0.000000E+00     0.000000E+00     2.370482E+02
#     94     Pu     0.000000E+00     0.000000E+00     2.440642E+02
#     95     Am     0.000000E+00     0.000000E+00     2.430614E+02
#     96     Cm     0.000000E+00     0.000000E+00     2.470704E+02
#     97     Bk     0.000000E+00     0.000000E+00     2.470703E+02
#     98     Cf     0.000000E+00     0.000000E+00     2.510796E+02
#     99     Es     0.000000E+00     0.000000E+00     2.540881E+02
#
#
#  Abundance ratio variations of metals with respect to 
#  scaled-solar values: [X_i/Fe] (in dex)
#  Fe-group elements: V, Cr, Mn, Fe, Co, Ni, Cu, Zn
#  Reference metallicity is preserved:  Zref = Z
#  No change in any metal abundance
#
#       1    H         -----      34   [Se/Fe]=   0.000      67   [Ho/Fe]=   0.000
#       2    He        -----      35   [Br/Fe]=   0.000      68   [Er/Fe]=   0.000
#       3   [Li/Fe]=   0.000      36   [Kr/Fe]=   0.000      69   [Tm/Fe]=   0.000
#       4   [Be/Fe]=   0.000      37   [Rb/Fe]=   0.000      70   [Yb/Fe]=   0.000
#       5   [B /Fe]=   0.000      38   [Sr/Fe]=   0.000      71   [Lu/Fe]=   0.000
#       6   [C /Fe]=   0.000      39   [Y /Fe]=   0.000      72   [Hf/Fe]=   0.000
#       7   [N /Fe]=   0.000      40   [Zr/Fe]=   0.000      73   [Ta/Fe]=   0.000
#       8   [O /Fe]=   0.000      41   [Nb/Fe]=   0.000      74   [W /Fe]=   0.000
#       9   [F /Fe]=   0.000      42   [Mo/Fe]=   0.000      75   [Re/Fe]=   0.000
#      10   [Ne/Fe]=   0.000      43   [Tc/Fe]=   0.000      76   [Os/Fe]=   0.000
#      11   [Na/Fe]=   0.000      44   [Ru/Fe]=   0.000      77   [Ir/Fe]=   0.000
#      12   [Mg/Fe]=   0.000      45   [Rh/Fe]=   0.000      78   [Pt/Fe]=   0.000
#      13   [Al/Fe]=   0.000      46   [Pd/Fe]=   0.000      79   [Au/Fe]=   0.000
#      14   [Si/Fe]=   0.000      47   [Ag/Fe]=   0.000      80   [Hg/Fe]=   0.000
#      15   [P /Fe]=   0.000      48   [Cd/Fe]=   0.000      81   [Tl/Fe]=   0.000
#      16   [S /Fe]=   0.000      49   [In/Fe]=   0.000      82   [Pb/Fe]=   0.000
#      17   [Cl/Fe]=   0.000      50   [Sn/Fe]=   0.000      83   [Bi/Fe]=   0.000
#      18   [Ar/Fe]=   0.000      51   [Sb/Fe]=   0.000      84   [Po/Fe]=   0.000
#      19   [K /Fe]=   0.000      52   [Te/Fe]=   0.000      85   [At/Fe]=   0.000
#      20   [Ca/Fe]=   0.000      53   [I /Fe]=   0.000      86   [Rn/Fe]=   0.000
#      21   [Sc/Fe]=   0.000      54   [Xe/Fe]=   0.000      87   [Fr/Fe]=   0.000
#      22   [Ti/Fe]=   0.000      55   [Cs/Fe]=   0.000      88   [Ra/Fe]=   0.000
#      23    V         -----      56   [Ba/Fe]=   0.000      89   [Ac/Fe]=   0.000
#      24    Cr        -----      57   [La/Fe]=   0.000      90   [Th/Fe]=   0.000
#      25    Mn        -----      58   [Ce/Fe]=   0.000      91   [Pa/Fe]=   0.000
#      26    Fe        -----      59   [Pr/Fe]=   0.000      92   [U /Fe]=   0.000
#      27    Co        -----      60   [Nd/Fe]=   0.000      93   [Np/Fe]=   0.000
#      28    Ni        -----      61   [Pm/Fe]=   0.000      94   [Pu/Fe]=   0.000
#      29    Cu        -----      62   [Sm/Fe]=   0.000      95   [Am/Fe]=   0.000
#      30    Zn        -----      63   [Eu/Fe]=   0.000      96   [Cm/Fe]=   0.000
#      31   [Ga/Fe]=   0.000      64   [Gd/Fe]=   0.000      97   [Bk/Fe]=   0.000
#      32   [Ge/Fe]=   0.000      65   [Tb/Fe]=   0.000      98   [Cf/Fe]=   0.000
#      33   [As/Fe]=   0.000      66   [Dy/Fe]=   0.000      99   [Es/Fe]=   0.000
#
#
#  Individual variations of metal abundances (number fraction): log10(variation factor) (in dex)
#  Reference metallicity is in general NOT preserved Zref != Z
#
#       1   H    -----      34   Se   0.000      67   Ho   0.000
#       2   He   -----      35   Br   0.000      68   Er   0.000
#       3   Li   0.000      36   Kr   0.000      69   Tm   0.000
#       4   Be   0.000      37   Rb   0.000      70   Yb   0.000
#       5   B    0.000      38   Sr   0.000      71   Lu   0.000
#       6   C    0.000      39   Y    0.000      72   Hf   0.000
#       7   N    0.000      40   Zr   0.000      73   Ta   0.000
#       8   O    0.000      41   Nb   0.000      74   W    0.000
#       9   F    0.000      42   Mo   0.000      75   Re   0.000
#      10   Ne   0.000      43   Tc   0.000      76   Os   0.000
#      11   Na   0.000      44   Ru   0.000      77   Ir   0.000
#      12   Mg   0.000      45   Rh   0.000      78   Pt   0.000
#      13   Al   0.000      46   Pd   0.000      79   Au   0.000
#      14   Si   0.000      47   Ag   0.000      80   Hg   0.000
#      15   P    0.000      48   Cd   0.000      81   Tl   0.000
#      16   S    0.000      49   In   0.000      82   Pb   0.000
#      17   Cl   0.000      50   Sn   0.000      83   Bi   0.000
#      18   Ar   0.000      51   Sb   0.000      84   Po   0.000
#      19   K    0.000      52   Te   0.000      85   At   0.000
#      20   Ca   0.000      53   I    0.000      86   Rn   0.000
#      21   Sc   0.000      54   Xe   0.000      87   Fr   0.000
#      22   Ti   0.000      55   Cs   0.000      88   Ra   0.000
#      23   V    0.000      56   Ba   0.000      89   Ac   0.000
#      24   Cr   0.000      57   La   0.000      90   Th   0.000
#      25   Mn   0.000      58   Ce   0.000      91   Pa   0.000
#      26   Fe   0.000      59   Pr   0.000      92   U    0.000
#      27   Co   0.000      60   Nd   0.000      93   Np   0.000
#      28   Ni   0.000      61   Pm   0.000      94   Pu   0.000
#      29   Cu   0.000      62   Sm   0.000      95   Am   0.000
#      30   Zn   0.000      63   Eu   0.000      96   Cm   0.000
#      31   Ga   0.000      64   Gd   0.000      97   Bk   0.000
#      32   Ge   0.000      65   Tb   0.000      98   Cf   0.000
#      33   As   0.000      66   Dy   0.000      99   Es   0.000
#
#
#              VARIATION GRID OF C/O - C - N ABUNDANCES (in number fraction)
#
#          FCO = log10(variation factor) of C/O ratio
#
#
#           FC = log10(variation factor) of carbon abundance
#
#
#           FN = log10(variation factor) of nitrogen abundance
#
#
#           FO = FC - FCO = log10(variation factor) of oxygen abundance 
#
#
#              TOTAL NUMBER OF TABLES:   mh x mco x mc x mn =     1
#
#
# TABLE      1     X=  0.700000     Y=  0.299500     Zref= 5.000000E-04     Z= 5.000000E-04     FCO=  0.000   FC=  0.000   FN=  0.000   FO=  0.000  C/O=   4.8978E-01
#
#     Zi   element     ni/nz             Xi/Z            ni/nH            Xi/XH             <Ai>
#
#      3     Li     9.323684E-09     3.757845E-09     3.897560E-13     2.684175E-12       6.941739
#      4     Be     1.859891E-08     9.731966E-09     7.774864E-13     6.951404E-12       9.012183
#      5     B      2.627166E-07     1.649247E-07     1.098229E-11     1.178033E-10      10.812224
#      6     C      2.451814E-01     1.709837E-01     1.024927E-05     1.221312E-04      12.011137
#      7     N      6.158679E-02     5.008508E-02     2.574499E-06     3.577506E-05      14.006763
#      8     O      5.005962E-01     4.650221E-01     2.092632E-05     3.321587E-04      15.999375
#      9     F      2.688361E-05     2.965430E-05     1.123810E-09     2.118165E-08      18.998405
#     10     Ne     8.904049E-02     1.042809E-01     3.722141E-06     7.448638E-05      20.171321
#     11     Na     1.583024E-03     2.113028E-03     6.617483E-08     1.509306E-06      22.989771
#     12     Mg     2.814411E-02     3.972350E-02     1.176502E-06     2.837393E-05      24.309551
#     13     Al     2.184679E-03     3.422452E-03     9.132566E-08     2.444608E-06      26.981541
#     14     Si     2.627166E-02     4.284049E-02     1.098229E-06     3.060035E-05      28.085611
#     15     P      2.086832E-04     3.752879E-04     8.723541E-09     2.680628E-07      30.973765
#     16     S      1.583024E-02     2.947097E-02     6.617483E-07     2.105069E-05      32.064451
#     17     Cl     2.341464E-04     4.820356E-04     9.787974E-09     3.443111E-07      35.457532
#     18     Ar     1.859891E-03     4.313819E-03     7.774864E-08     3.081300E-06      39.947662
#     19     K      9.758600E-05     2.215449E-04     4.079367E-09     1.582464E-07      39.101298
#     20     Ca     1.696632E-03     3.947852E-03     7.092393E-08     2.819894E-06      40.076544
#     21     Sc     1.094933E-06     2.857969E-06     4.577125E-11     2.041406E-09      44.955917
#     22     Ti     7.753317E-05     2.155336E-04     3.241103E-09     1.539526E-07      47.878925
#     23     V      7.404360E-06     2.189994E-05     3.095229E-10     1.564281E-08      50.941572
#     24     Cr     3.463279E-04     1.045572E-03     1.447747E-08     7.468374E-07      51.997623
#     25     Mn     1.817136E-04     5.796206E-04     7.596137E-09     4.140147E-07      54.938046
#     26     Fe     2.341464E-02     7.592291E-02     9.787974E-07     5.423065E-05      55.847311
#     27     Co     6.158679E-05     2.107320E-04     2.574499E-09     1.505229E-07      58.933189
#     28     Ni     1.316702E-03     4.487945E-03     5.504182E-08     3.205675E-06      58.705254
#     29     Cu     1.201123E-05     4.431668E-05     5.021030E-10     3.165477E-08      63.547234
#     30     Zn     2.947729E-05     1.119080E-04     1.232233E-09     7.993429E-08      65.386875
#     31     Ga     5.616782E-07     2.273583E-06     2.347971E-11     1.623988E-09      69.717234
#     32     Ge     1.903214E-06     8.025819E-06     7.955964E-11     5.732728E-09      72.630452
#     33     As     1.736151E-07     7.552272E-07     7.257596E-12     5.394480E-10      74.921600
#     34     Se     1.903214E-06     8.728593E-06     7.955964E-11     6.234709E-09      78.990277
#     35     Br     3.158548E-07     1.465389E-06     1.320361E-11     1.046706E-09      79.906523
#     36     Kr     1.511428E-06     7.353928E-06     6.318192E-11     5.252806E-09      83.800924
#     37     Rb     2.947729E-07     1.462765E-06     1.232233E-11     1.044832E-09      85.468072
#     38     Sr     6.910151E-07     3.515251E-06     2.888636E-11     2.510893E-09      87.616461
#     39     Y      1.287027E-07     6.643562E-07     5.380130E-12     4.745402E-10      88.905867
#     40     Zr     2.947729E-07     1.561272E-06     1.232233E-11     1.115194E-09      91.223746
#     41     Nb     1.947545E-08     1.050549E-07     8.141282E-13     7.503918E-11      92.906380
#     42     Mo     6.158679E-08     3.428800E-07     2.574499E-12     2.449143E-10      95.889605
#     43     Tc     0.000000E+00     0.000000E+00     0.000000E+00     0.000000E+00      96.906390
#     44     Ru     5.122566E-08     3.005927E-07     2.141375E-12     2.147091E-10     101.066641
#     45     Rh     9.758600E-09     5.830546E-08     4.079367E-13     4.164676E-11     102.905511
#     46     Pd     3.626499E-08     2.240978E-07     1.515978E-12     1.600699E-10     106.430727
#     47     Ag     6.448928E-09     4.038921E-08     2.695832E-13     2.884943E-11     107.868530
#     48     Cd     4.360011E-08     2.845931E-07     1.822606E-12     2.032808E-10     112.422659
#     49     In     3.384446E-08     2.256221E-07     1.414793E-12     1.611586E-10     114.818279
#     50     Sn     7.404360E-08     5.104404E-07     3.095229E-12     3.646003E-10     118.733825
#     51     Sb     7.404360E-09     5.234457E-08     3.095229E-13     3.738898E-11     121.758986
#     52     Te     1.287027E-07     9.537093E-07     5.380130E-12     6.812209E-10     127.627845
#     53     I      2.395452E-08     1.765011E-07     1.001366E-12     1.260722E-10     126.904474
#     54     Xe     1.094933E-07     8.346586E-07     4.577125E-12     5.961847E-10     131.292004
#     55     Cs     9.990507E-09     7.709272E-08     4.176311E-13     5.506623E-11     132.905440
#     56     Ba     9.990507E-08     7.965774E-07     4.176311E-12     5.689839E-10     137.327464
#     57     La     1.094933E-08     8.830597E-08     4.577125E-13     6.307569E-11     138.905511
#     58     Ce     2.814411E-08     2.289570E-07     1.176502E-12     1.635407E-10     140.114588
#     59     Pr     3.796536E-09     3.106028E-08     1.587058E-13     2.218591E-11     140.907700
#     60     Nd     2.341464E-08     1.960919E-07     9.787974E-13     1.400656E-10     144.241079
#     61     Pm     0.000000E+00     0.000000E+00     0.000000E+00     0.000000E+00     144.912790
#     62     Sm     7.576830E-09     6.614742E-08     3.167326E-13     4.724816E-11     150.363469
#     63     Eu     2.395452E-09     2.113547E-08     1.001366E-13     1.509676E-11     151.964200
#     64     Gd     9.758600E-09     8.909990E-08     4.079367E-13     6.364279E-11     157.255784
#     65     Tb     5.881492E-10     5.427051E-09     2.458628E-14     3.876465E-12     158.925390
#     66     Dy     1.022322E-08     9.645489E-08     4.273590E-13     6.889635E-11     162.500111
#     67     Ho     1.347372E-09     1.290242E-08     5.632391E-14     9.216015E-12     164.930360
#     68     Er     6.302133E-09     6.120210E-08     2.634467E-13     4.371578E-11     167.261394
#     69     Tm     7.404360E-10     7.262536E-09     3.095229E-14     5.187525E-12     168.934240
#     70     Yb     8.904049E-09     8.945589E-08     3.722141E-13     6.389706E-11     173.036747
#     71     Lu     8.503301E-10     8.638257E-09     3.554617E-14     6.170183E-12     174.966749
#     72     Hf     5.616782E-09     5.820847E-08     2.347971E-13     4.157748E-11     178.490703
#     73     Ta     5.488928E-10     5.766657E-09     2.294525E-14     4.119041E-12     180.947907
#     74     W      9.540860E-09     1.018390E-07     3.988346E-13     7.274215E-11     183.841519
#     75     Re     1.410872E-09     1.525392E-08     5.897838E-14     1.089566E-11     186.213359
#     76     Os     2.086832E-08     2.304976E-07     8.723541E-13     1.646411E-10     190.237368
#     77     Ir     1.658011E-08     1.850377E-07     6.930951E-13     1.321698E-10     192.216095
#     78     Pt     4.671835E-08     5.291572E-07     1.952958E-12     3.779694E-10     195.080617
#     79     Au     7.576830E-09     8.664890E-08     3.167326E-13     6.189207E-11     196.966550
#     80     Hg     9.990507E-09     1.163576E-07     4.176311E-13     8.311258E-11     200.596900
#     81     Tl     5.881492E-09     6.979384E-08     2.458628E-13     4.985274E-11     204.383823
#     82     Pb     6.599143E-08     7.939617E-07     2.758626E-12     5.671155E-10     207.218721
#     83     Bi     3.796536E-09     4.606554E-08     1.587058E-13     3.290396E-11     208.980400
#     84     Po     0.000000E+00     0.000000E+00     0.000000E+00     0.000000E+00     208.982440
#     85     At     0.000000E+00     0.000000E+00     0.000000E+00     0.000000E+00     209.987040
#     86     Rn     0.000000E+00     0.000000E+00     0.000000E+00     0.000000E+00     222.017610
#     87     Fr     0.000000E+00     0.000000E+00     0.000000E+00     0.000000E+00     223.019760
#     88     Ra     0.000000E+00     0.000000E+00     0.000000E+00     0.000000E+00     226.025440
#     89     Ac     0.000000E+00     0.000000E+00     0.000000E+00     0.000000E+00     227.027770
#     90     Th     9.105159E-10     1.226676E-08     3.806211E-14     8.761971E-12     232.038080
#     91     Pa     0.000000E+00     0.000000E+00     0.000000E+00     0.000000E+00     231.035900
#     92     U      2.341464E-10     3.235939E-09     9.787974E-15     2.311385E-12     238.028942
#     93     Np     0.000000E+00     0.000000E+00     0.000000E+00     0.000000E+00     237.048190
#     94     Pu     0.000000E+00     0.000000E+00     0.000000E+00     0.000000E+00     244.064240
#     95     Am     0.000000E+00     0.000000E+00     0.000000E+00     0.000000E+00     243.061390
#     96     Cm     0.000000E+00     0.000000E+00     0.000000E+00     0.000000E+00     247.070380
#     97     Bk     0.000000E+00     0.000000E+00     0.000000E+00     0.000000E+00     247.070320
#     98     Cf     0.000000E+00     0.000000E+00     0.000000E+00     0.000000E+00     251.079610
#     99     Es     0.000000E+00     0.000000E+00     0.000000E+00     0.000000E+00     254.088050
#
#
4.500  -0.4714  -0.4706  -0.4696  -0.4684  -0.4672  -0.4657  -0.4640  -0.4618  -0.4593  -0.4563  -0.4528  -0.4486  -0.4437  -0.4380  -0.4313  -0.4234  -0.4142  -0.4035  -0.3913  -0.3776  -0.3622  -0.3453  -0.3269  -0.3071  -0.2864  -0.2645  -0.2414  -0.2169  -0.1909  -0.1633  -0.1336  -0.1014  -0.0661  -0.0276   0.0148   0.0613   0.1123   0.1681   0.2287   0.2941   0.3644   0.4394   0.5189   0.6026   0.6902   0.7810   0.8750   0.9715   1.0702   1.1708   1.2731   1.3768   1.4817   1.5877   1.6946   1.8024   1.9109   2.0202   2.1302   2.2407   2.3515   2.4628   2.5746   2.6870   2.7993   2.9118   3.0248   3.1379   3.2508   3.3634   3.4755   3.5870   3.6977   3.8074   3.9154   4.0212   4.1248   4.2256   4.3227   4.4164   4.5058   4.5908   4.6713   4.7469   4.8172   4.8827   4.9425   4.9973   5.0475   5.0930   5.1341
4.450  -0.4739  -0.4736  -0.4732  -0.4727  -0.4721  -0.4712  -0.4701  -0.4686  -0.4667  -0.4642  -0.4612  -0.4577  -0.4534  -0.4483  -0.4423  -0.4353  -0.4275  -0.4186  -0.4085  -0.3972  -0.3847  -0.3711  -0.3564  -0.3404  -0.3232  -0.3048  -0.2852  -0.2640  -0.2410  -0.2158  -0.1881  -0.1576  -0.1239  -0.0864  -0.0448   0.0010   0.0515   0.1067   0.1669   0.2320   0.3021   0.3770   0.4565   0.5403   0.6279   0.7190   0.8131   0.9099   1.0090   1.1100   1.2127   1.3166   1.4217   1.5279   1.6351   1.7430   1.8510   1.9597   2.0690   2.1788   2.2890   2.3991   2.5095   2.6202   2.7313   2.8425   2.9532   3.0640   3.1746   3.2850   3.3948   3.5034   3.6109   3.7170   3.8214   3.9236   4.0230   4.1194   4.2125   4.3019   4.3869   4.4676   4.5439   4.6152   4.6819   4.7437   4.8008   4.8534   4.9016   4.9458   4.9865
4.400  -0.4820  -0.4830  -0.4839  -0.4845  -0.4848  -0.4846  -0.4837  -0.4824  -0.4806  -0.4780  -0.4747  -0.4706  -0.4659  -0.4605  -0.4543  -0.4472  -0.4394  -0.4308  -0.4214  -0.4112  -0.4001  -0.3882  -0.3753  -0.3614  -0.3463  -0.3299  -0.3120  -0.2923  -0.2705  -0.2462  -0.2191  -0.1889  -0.1552  -0.1175  -0.0757  -0.0295   0.0212   0.0768   0.1373   0.2027   0.2730   0.3480   0.4275   0.5110   0.5984   0.6890   0.7826   0.8786   0.9767   1.0767   1.1784   1.2815   1.3855   1.4904   1.5962   1.7027   1.8098   1.9170   2.0245   2.1323   2.2403   2.3484   2.4565   2.5643   2.6723   2.7802   2.8882   2.9957   3.1026   3.2091   3.3150   3.4200   3.5236   3.6253   3.7249   3.8219   3.9158   4.0061   4.0922   4.1742   4.2516   4.3243   4.3923   4.4558   4.5148   4.5691   4.6197   4.6664   4.7094   4.7493   4.7862
4.350  -0.5006  -0.5003  -0.4996  -0.4985  -0.4973  -0.4957  -0.4937  -0.4912  -0.4882  -0.4848  -0.4810  -0.4767  -0.4720  -0.4668  -0.4611  -0.4550  -0.4484  -0.4412  -0.4334  -0.4249  -0.4155  -0.4053  -0.3939  -0.3811  -0.3669  -0.3510  -0.3332  -0.3131  -0.2906  -0.2652  -0.2367  -0.2049  -0.1693  -0.1299  -0.0863  -0.0384   0.0140   0.0711   0.1328   0.1989   0.2697   0.3450   0.4246   0.5080   0.5947   0.6847   0.7774   0.8725   0.9696   1.0682   1.1683   1.2696   1.3717   1.4746   1.5778   1.6814   1.7854   1.8896   1.9938   2.0980   2.2024   2.3069   2.4117   2.5167   2.6217   2.7268   2.8320   2.9370   3.0417   3.1453   3.2476   3.3483   3.4468   3.5425   3.6348   3.7234   3.8079   3.8880   3.9635   4.0344   4.1006   4.1622   4.2195   4.2726   4.3218   4.3674   4.4097   4.4489   4.4855   4.5196   4.5517
4.300  -0.5027  -0.5019  -0.5008  -0.4995  -0.4975  -0.4955  -0.4934  -0.4910  -0.4883  -0.4853  -0.4821  -0.4785  -0.4748  -0.4708  -0.4665  -0.4618  -0.4567  -0.4511  -0.4448  -0.4377  -0.4295  -0.4202  -0.4095  -0.3972  -0.3830  -0.3668  -0.3482  -0.3271  -0.3030  -0.2759  -0.2454  -0.2115  -0.1738  -0.1321  -0.0862  -0.0364   0.0178   0.0764   0.1394   0.2068   0.2785   0.3543   0.4338   0.5170   0.6035   0.6927   0.7845   0.8783   0.9739   1.0709   1.1691   1.2681   1.3677   1.4679   1.5684   1.6691   1.7702   1.8716   1.9735   2.0759   2.1786   2.2819   2.3856   2.4897   2.5939   2.6978   2.8008   2.9027   3.0031   3.1012   3.1967   3.2887   3.3771   3.4614   3.5414   3.6169   3.6877   3.7538   3.8153   3.8725   3.9255   3.9747   4.0202   4.0625   4.1017   4.1383   4.1724   4.2045   4.2348   4.2635   4.2908
4.250  -0.5039  -0.5030  -0.5018  -0.5005  -0.4990  -0.4974  -0.4956  -0.4936  -0.4915  -0.4893  -0.4869  -0.4843  -0.4817  -0.4787  -0.4754  -0.4716  -0.4672  -0.4622  -0.4562  -0.4491  -0.4407  -0.4308  -0.4194  -0.4061  -0.3908  -0.3729  -0.3525  -0.3294  -0.3031  -0.2736  -0.2405  -0.2038  -0.1635  -0.1191  -0.0707  -0.0181   0.0386   0.0997   0.1651   0.2346   0.3080   0.3851   0.4657   0.5492   0.6353   0.7237   0.8140   0.9061   0.9996   1.0944   1.1902   1.2872   1.3851   1.4839   1.5837   1.6843   1.7857   1.8875   1.9900   2.0927   2.1955   2.2980   2.3995   2.5001   2.5993   2.6966   2.7916   2.8837   2.9722   3.0572   3.1382   3.2150   3.2875   3.3553   3.4186   3.4775   3.5322   3.5829   3.6298   3.6733   3.7136   3.7511   3.7860   3.8186   3.8492   3.8782   3.9056   3.9319   3.9571   3.9815   4.0052
4.200  -0.5051  -0.5042  -0.5033  -0.5022  -0.5011  -0.4999  -0.4986  -0.4970  -0.4954  -0.4938  -0.4920  -0.4899  -0.4876  -0.4850  -0.4819  -0.4782  -0.4737  -0.4683  -0.4619  -0.4543  -0.4453  -0.4345  -0.4218  -0.4070  -0.3898  -0.3701  -0.3473  -0.3214  -0.2921  -0.2593  -0.2228  -0.1826  -0.1385  -0.0906  -0.0389   0.0168   0.0762   0.1395   0.2063   0.2768   0.3507   0.4277   0.5078   0.5907   0.6763   0.7642   0.8546   0.9470   1.0413   1.1373   1.2347   1.3333   1.4328   1.5331   1.6337   1.7344   1.8351   1.9356   2.0354   2.1338   2.2309   2.3264   2.4195   2.5101   2.5969   2.6805   2.7603   2.8359   2.9072   2.9740   3.0363   3.0943   3.1480   3.1978   3.2439   3.2865   3.3260   3.3627   3.3967   3.4284   3.4582   3.4863   3.5128   3.5381   3.5622   3.5856   3.6082   3.6303   3.6521   3.6737   3.6953
4.150  -0.5025  -0.5019  -0.5012  -0.5004  -0.4996  -0.4988  -0.4979  -0.4969  -0.4957  -0.4943  -0.4927  -0.4907  -0.4884  -0.4855  -0.4820  -0.4780  -0.4729  -0.4668  -0.4595  -0.4508  -0.4405  -0.4283  -0.4139  -0.3971  -0.3778  -0.3556  -0.3303  -0.3020  -0.2702  -0.2349  -0.1959  -0.1532  -0.1067  -0.0564  -0.0021   0.0563   0.1187   0.1851   0.2556   0.3299   0.4079   0.4895   0.5742   0.6618   0.7518   0.8440   0.9379   1.0331   1.1296   1.2271   1.3246   1.4224   1.5202   1.6175   1.7141   1.8095   1.9031   1.9948   2.0842   2.1708   2.2541   2.3335   2.4092   2.4807   2.5480   2.6109   2.6690   2.7232   2.7735   2.8200   2.8629   2.9026   2.9393   2.9734   3.0050   3.0344   3.0620   3.0879   3.1124   3.1358   3.1581   3.1797   3.2006   3.2210   3.2411   3.2611   3.2810   3.3010   3.3213   3.3418   3.3629
4.100  -0.5079  -0.5076  -0.5073  -0.5070  -0.5066  -0.5062  -0.5056  -0.5049  -0.5041  -0.5030  -0.5018  -0.5002  -0.4982  -0.4958  -0.4928  -0.4891  -0.4847  -0.4792  -0.4725  -0.4643  -0.4544  -0.4425  -0.4283  -0.4114  -0.3915  -0.3684  -0.3417  -0.3111  -0.2763  -0.2374  -0.1937  -0.1454  -0.0923  -0.0344   0.0280   0.0948   0.1659   0.2409   0.3196   0.4016   0.4865   0.5738   0.6633   0.7546   0.8471   0.9406   1.0346   1.1285   1.2223   1.3152   1.4072   1.4979   1.5863   1.6725   1.7559   1.8360   1.9126   1.9854   2.0541   2.1183   2.1786   2.2347   2.2867   2.3348   2.3789   2.4200   2.4579   2.4929   2.5254   2.5555   2.5837   2.6091   2.6338   2.6571   2.6793   2.7005   2.7210   2.7408   2.7602   2.7793   2.7982   2.8170   2.8357   2.8546   2.8738   2.8934   2.9134   2.9340   2.9552   2.9772   2.9999
4.050  -0.5089  -0.5091  -0.5094  -0.5098  -0.5102  -0.5106  -0.5110  -0.5114  -0.5118  -0.5120  -0.5121  -0.5118  -0.5110  -0.5097  -0.5075  -0.5042  -0.4997  -0.4937  -0.4862  -0.4762  -0.4639  -0.4489  -0.4308  -0.4094  -0.3845  -0.3557  -0.3229  -0.2859  -0.2445  -0.1987  -0.1485  -0.0934  -0.0338   0.0303   0.0986   0.1708   0.2465   0.3255   0.4071   0.4907   0.5762   0.6630   0.7505   0.8379   0.9251   1.0115   1.0965   1.1798   1.2605   1.3384   1.4130   1.4838   1.5511   1.6144   1.6736   1.7287   1.7799   1.8274   1.8712   1.9113   1.9486   1.9830   2.0148   2.0443   2.0713   2.0969   2.1209   2.1435   2.1649   2.1854   2.2051   2.2235   2.2419   2.2599   2.2777   2.2956   2.3134   2.3313   2.3493   2.3664   2.3850   2.4040   2.4236   2.4438   2.4647   2.4864   2.5088   2.5322   2.5564   2.5815   2.6072
4.000  -0.5313  -0.5335  -0.5355  -0.5372  -0.5387  -0.5398  -0.5405  -0.5408  -0.5406  -0.5397  -0.5383  -0.5361  -0.5331  -0.5291  -0.5242  -0.5179  -0.5103  -0.5010  -0.4897  -0.4763  -0.4607  -0.4420  -0.4202  -0.3950  -0.3662  -0.3337  -0.2972  -0.2566  -0.2117  -0.1628  -0.1096  -0.0523   0.0088   0.0739   0.1425   0.2139   0.2876   0.3630   0.4395   0.5162   0.5924   0.6674   0.7407   0.8117   0.8798   0.9444   1.0059   1.0636   1.1175   1.1677   1.2144   1.2575   1.2973   1.3340   1.3680   1.3992   1.4284   1.4555   1.4809   1.5050   1.5272   1.5485   1.5689   1.5886   1.6075   1.6261   1.6438   1.6617   1.6794   1.6971   1.7148   1.7327   1.7502   1.7685   1.7872   1.8064   1.8259   1.8462   1.8670   1.8886   1.9098   1.9327   1.9564   1.9809   2.0064   2.0327   2.0599   2.0882   2.1155   2.1454   2.1762
3.950  -0.5509  -0.5508  -0.5504  -0.5499  -0.5493  -0.5483  -0.5472  -0.5457  -0.5438  -0.5414  -0.5385  -0.5348  -0.5303  -0.5248  -0.5181  -0.5101  -0.5007  -0.4894  -0.4762  -0.4608  -0.4429  -0.4228  -0.3995  -0.3731  -0.3437  -0.3109  -0.2750  -0.2361  -0.1941  -0.1491  -0.1015  -0.0517   0.0000   0.0531   0.1069   0.1611   0.2150   0.2677   0.3190   0.3682   0.4152   0.4596   0.5013   0.5405   0.5769   0.6110   0.6427   0.6721   0.6999   0.7258   0.7501   0.7728   0.7948   0.8157   0.8359   0.8553   0.8742   0.8928   0.9113   0.9295   0.9478   0.9661   0.9846   1.0033   1.0219   1.0413   1.0611   1.0813   1.1021   1.1235   1.1449   1.1672   1.1902   1.2139   1.2381   1.2631   1.2881   1.3144   1.3413   1.3690   1.3974   1.4267   1.4566   1.4865   1.5181   1.5505   1.5836   1.6177   1.6527   1.6885   1.7237
3.900  -0.5511  -0.5504  -0.5496  -0.5487  -0.5476  -0.5462  -0.5446  -0.5426  -0.5403  -0.5374  -0.5340  -0.5298  -0.5248  -0.5191  -0.5122  -0.5043  -0.4951  -0.4846  -0.4729  -0.4599  -0.4453  -0.4294  -0.4121  -0.3942  -0.3747  -0.3543  -0.3334  -0.3120  -0.2904  -0.2690  -0.2480  -0.2273  -0.2072  -0.1878  -0.1691  -0.1511  -0.1337  -0.1170  -0.1010  -0.0853  -0.0701  -0.0553  -0.0406  -0.0261  -0.0118   0.0026   0.0171   0.0317   0.0466   0.0619   0.0774   0.0936   0.1103   0.1275   0.1454   0.1640   0.1833   0.2031   0.2239   0.2455   0.2678   0.2904   0.3144   0.3391   0.3644   0.3906   0.4172   0.4447   0.4727   0.5015   0.5307   0.5605   0.5911   0.6222   0.6539   0.6862   0.7186   0.7521   0.7862   0.8209   0.8564   0.8918   0.9285   0.9658   1.0038   1.0425   1.0818   1.1214   1.1620   1.2032   1.2451
3.850  -0.5515  -0.5512  -0.5509  -0.5506  -0.5503  -0.5500  -0.5498  -0.5495  -0.5492  -0.5489  -0.5488  -0.5487  -0.5488  -0.5491  -0.5497  -0.5509  -0.5527  -0.5553  -0.5588  -0.5633  -0.5689  -0.5758  -0.5837  -0.5928  -0.6028  -0.6137  -0.6254  -0.6378  -0.6504  -0.6631  -0.6758  -0.6884  -0.7009  -0.7125  -0.7235  -0.7336  -0.7426  -0.7504  -0.7568  -0.7617  -0.7648  -0.7662  -0.7657  -0.7633  -0.7591  -0.7526  -0.7442  -0.7337  -0.7212  -0.7070  -0.6907  -0.6726  -0.6530  -0.6315  -0.6085  -0.5841  -0.5583  -0.5313  -0.5031  -0.4739  -0.4436  -0.4126  -0.3808  -0.3481  -0.3147  -0.2806  -0.2462  -0.2110  -0.1754  -0.1393  -0.1028  -0.0657  -0.0282   0.0097   0.0475   0.0865   0.1260   0.1660   0.2064   0.2473   0.2887   0.3306   0.3729   0.4156   0.4589   0.5028   0.5473   0.5921   0.6369   0.6826   0.7289
3.800  -0.5744  -0.5795  -0.5857  -0.5931  -0.6019  -0.6122  -0.6241  -0.6378  -0.6533  -0.6707  -0.6899  -0.7109  -0.7337  -0.7581  -0.7840  -0.8114  -0.8400  -0.8698  -0.9005  -0.9322  -0.9645  -0.9975  -1.0309  -1.0646  -1.0985  -1.1325  -1.1663  -1.1999  -1.2331  -1.2658  -1.2977  -1.3287  -1.3585  -1.3871  -1.4140  -1.4392  -1.4624  -1.4833  -1.5016  -1.5173  -1.5299  -1.5393  -1.5454  -1.5480  -1.5472  -1.5431  -1.5353  -1.5240  -1.5095  -1.4920  -1.4716  -1.4485  -1.4231  -1.3955  -1.3659  -1.3346  -1.3018  -1.2679  -1.2326  -1.1963  -1.1591  -1.1211  -1.0825  -1.0435  -1.0038  -0.9635  -0.9230  -0.8818  -0.8403  -0.7983  -0.7560  -0.7132  -0.6701  -0.6267  -0.5830  -0.5390  -0.4946  -0.4498  -0.4046  -0.3589  -0.3130  -0.2666  -0.2199  -0.1729  -0.1256  -0.0779  -0.0300   0.0182   0.0663   0.1151   0.1641
3.750  -0.7729  -0.8018  -0.8326  -0.8650  -0.8990  -0.9344  -0.9711  -1.0089  -1.0477  -1.0873  -1.1278  -1.1689  -1.2107  -1.2529  -1.2954  -1.3384  -1.3815  -1.4249  -1.4683  -1.5119  -1.5554  -1.5988  -1.6422  -1.6853  -1.7282  -1.7707  -1.8128  -1.8544  -1.8953  -1.9355  -1.9748  -2.0130  -2.0499  -2.0853  -2.1190  -2.1506  -2.1799  -2.2065  -2.2301  -2.2504  -2.2671  -2.2799  -2.2887  -2.2933  -2.2936  -2.2896  -2.2814  -2.2692  -2.2531  -2.2334  -2.2105  -2.1846  -2.1559  -2.1249  -2.0920  -2.0570  -2.0205  -1.9825  -1.9433  -1.9032  -1.8622  -1.8204  -1.7779  -1.7348  -1.6911  -1.6470  -1.6025  -1.5577  -1.5125  -1.4670  -1.4211  -1.3750  -1.3287  -1.2820  -1.2351  -1.1878  -1.1404  -1.0926  -1.0447  -0.9965  -0.9480  -0.8994  -0.8505  -0.8013  -0.7519  -0.7022  -0.6524  -0.6023  -0.5521  -0.5018  -0.4513
3.700  -1.3203  -1.3652  -1.4104  -1.4559  -1.5017  -1.5478  -1.5940  -1.6404  -1.6869  -1.7335  -1.7801  -1.8267  -1.8734  -1.9200  -1.9665  -2.0129  -2.0592  -2.1054  -2.1514  -2.1971  -2.2427  -2.2879  -2.3329  -2.3775  -2.4216  -2.4653  -2.5084  -2.5510  -2.5927  -2.6336  -2.6736  -2.7124  -2.7499  -2.7859  -2.8202  -2.8525  -2.8825  -2.9099  -2.9344  -2.9557  -2.9736  -2.9877  -2.9978  -3.0038  -3.0057  -3.0033  -2.9968  -2.9862  -2.9718  -2.9537  -2.9321  -2.9075  -2.8802  -2.8502  -2.8179  -2.7835  -2.7473  -2.7094  -2.6702  -2.6297  -2.5882  -2.5457  -2.5025  -2.4586  -2.4140  -2.3687  -2.3230  -2.2768  -2.2300  -2.1828  -2.1351  -2.0873  -2.0388  -1.9899  -1.9407  -1.8909  -1.8408  -1.7902  -1.7392  -1.6877  -1.6357  -1.5832  -1.5303  -1.4768  -1.4228  -1.3682  -1.3131  -1.2575  -1.2013  -1.1446  -1.0873
3.690  -1.4597  -1.5057  -1.5520  -1.5985  -1.6451  -1.6919  -1.7388  -1.7857  -1.8327  -1.8796  -1.9265  -1.9734  -2.0202  -2.0670  -2.1136  -2.1600  -2.2063  -2.2524  -2.2983  -2.3439  -2.3892  -2.4343  -2.4789  -2.5232  -2.5670  -2.6103  -2.6531  -2.6951  -2.7365  -2.7769  -2.8164  -2.8547  -2.8918  -2.9273  -2.9612  -2.9931  -3.0228  -3.0500  -3.0744  -3.0957  -3.1136  -3.1279  -3.1384  -3.1449  -3.1473  -3.1457  -3.1399  -3.1303  -3.1168  -3.0996  -3.0791  -3.0554  -3.0288  -2.9995  -2.9679  -2.9341  -2.8984  -2.8611  -2.8223  -2.7822  -2.7410  -2.6988  -2.6557  -2.6118  -2.5673  -2.5220  -2.4762  -2.4299  -2.3830  -2.3356  -2.2877  -2.2392  -2.1903  -2.1409  -2.0911  -2.0406  -1.9896  -1.9380  -1.8859  -1.8331  -1.7798  -1.7258  -1.6712  -1.6159  -1.5599  -1.5031  -1.4457  -1.3876  -1.3289  -1.2695  -1.2094
3.680  -1.6051  -1.6520  -1.6989  -1.7460  -1.7931  -1.8403  -1.8875  -1.9347  -1.9818  -2.0289  -2.0759  -2.1228  -2.1695  -2.2161  -2.2625  -2.3088  -2.3548  -2.4006  -2.4461  -2.4914  -2.5363  -2.5809  -2.6250  -2.6688  -2.7121  -2.7548  -2.7970  -2.8384  -2.8791  -2.9190  -2.9579  -2.9956  -3.0321  -3.0671  -3.1005  -3.1319  -3.1612  -3.1881  -3.2123  -3.2336  -3.2516  -3.2662  -3.2771  -3.2841  -3.2872  -3.2864  -3.2816  -3.2729  -3.2604  -3.2444  -3.2249  -3.2022  -3.1765  -3.1481  -3.1172  -3.0841  -3.0491  -3.0122  -2.9739  -2.9342  -2.8932  -2.8512  -2.8083  -2.7645  -2.7200  -2.6747  -2.6288  -2.5823  -2.5351  -2.4873  -2.4390  -2.3900  -2.3404  -2.2902  -2.2394  -2.1879  -2.1357  -2.0829  -2.0292  -1.9748  -1.9195  -1.8635  -1.8065  -1.7487  -1.6900  -1.6305  -1.5701  -1.5088  -1.4468  -1.3841  -1.3208
3.670  -1.7562  -1.8034  -1.8508  -1.8981  -1.9455  -1.9928  -2.0401  -2.0873  -2.1344  -2.1814  -2.2283  -2.2750  -2.3215  -2.3679  -2.4140  -2.4599  -2.5055  -2.5508  -2.5958  -2.6405  -2.6849  -2.7288  -2.7724  -2.8155  -2.8581  -2.9001  -2.9415  -2.9822  -3.0222  -3.0613  -3.0995  -3.1365  -3.1723  -3.2067  -3.2395  -3.2704  -3.2993  -3.3259  -3.3500  -3.3712  -3.3894  -3.4042  -3.4156  -3.4233  -3.4272  -3.4273  -3.4236  -3.4160  -3.4048  -3.3899  -3.3716  -3.3500  -3.3254  -3.2980  -3.2680  -3.2356  -3.2012  -3.1649  -3.1270  -3.0876  -3.0469  -3.0051  -2.9622  -2.9184  -2.8737  -2.8283  -2.7820  -2.7351  -2.6874  -2.6390  -2.5899  -2.5400  -2.4894  -2.4380  -2.3858  -2.3327  -2.2788  -2.2239  -2.1681  -2.1113  -2.0534  -1.9945  -1.9344  -1.8734  -1.8112  -1.7481  -1.6840  -1.6191  -1.5535  -1.4872  -1.4206
3.660  -1.9120  -1.9595  -2.0069  -2.0544  -2.1017  -2.1490  -2.1961  -2.2432  -2.2901  -2.3368  -2.3834  -2.4297  -2.4759  -2.5217  -2.5674  -2.6127  -2.6578  -2.7026  -2.7470  -2.7910  -2.8346  -2.8779  -2.9207  -2.9629  -3.0047  -3.0459  -3.0865  -3.1264  -3.1655  -3.2038  -3.2411  -3.2773  -3.3124  -3.3461  -3.3782  -3.4086  -3.4371  -3.4634  -3.4873  -3.5085  -3.5269  -3.5421  -3.5541  -3.5625  -3.5674  -3.5686  -3.5661  -3.5598  -3.5499  -3.5364  -3.5194  -3.4992  -3.4757  -3.4494  -3.4203  -3.3888  -3.3550  -3.3193  -3.2817  -3.2426  -3.2020  -3.1602  -3.1172  -3.0731  -3.0280  -2.9821  -2.9352  -2.8874  -2.8388  -2.7893  -2.7389  -2.6875  -2.6352  -2.5819  -2.5276  -2.4721  -2.4156  -2.3578  -2.2988  -2.2386  -2.1771  -2.1143  -2.0503  -1.9851  -1.9188  -1.8516  -1.7836  -1.7149  -1.6457  -1.5764  -1.5070
3.650  -2.0719  -2.1193  -2.1667  -2.2140  -2.2612  -2.3082  -2.3551  -2.4018  -2.4483  -2.4946  -2.5407  -2.5866  -2.6322  -2.6775  -2.7226  -2.7673  -2.8117  -2.8557  -2.8993  -2.9426  -2.9854  -3.0279  -3.0698  -3.1112  -3.1521  -3.1924  -3.2321  -3.2710  -3.3092  -3.3466  -3.3830  -3.4184  -3.4527  -3.4856  -3.5171  -3.5470  -3.5750  -3.6010  -3.6247  -3.6459  -3.6645  -3.6802  -3.6927  -3.7020  -3.7079  -3.7103  -3.7090  -3.7041  -3.6956  -3.6834  -3.6679  -3.6490  -3.6269  -3.6018  -3.5737  -3.5431  -3.5100  -3.4748  -3.4376  -3.3986  -3.3580  -3.3160  -3.2727  -3.2281  -3.1823  -3.1354  -3.0875  -3.0384  -2.9883  -2.9370  -2.8846  -2.8310  -2.7762  -2.7200  -2.6626  -2.6037  -2.5434  -2.4816  -2.4184  -2.3538  -2.2877  -2.2203  -2.1518  -2.0822  -2.0117  -1.9406  -1.8690  -1.7973  -1.7256  -1.6542  -1.5833
3.640  -2.2366  -2.2839  -2.3310  -2.3781  -2.4249  -2.4716  -2.5181  -2.5643  -2.6104  -2.6561  -2.7017  -2.7469  -2.7918  -2.8365  -2.8808  -2.9248  -2.9684  -3.0116  -3.0544  -3.0968  -3.1388  -3.1802  -3.2212  -3.2616  -3.3015  -3.3408  -3.3795  -3.4174  -3.4546  -3.4909  -3.5264  -3.5608  -3.5942  -3.6263  -3.6570  -3.6863  -3.7138  -3.7394  -3.7630  -3.7843  -3.8031  -3.8193  -3.8325  -3.8427  -3.8497  -3.8534  -3.8536  -3.8503  -3.8435  -3.8331  -3.8191  -3.8017  -3.7809  -3.7570  -3.7300  -3.7003  -3.6679  -3.6331  -3.5962  -3.5572  -3.5165  -3.4741  -3.4300  -3.3846  -3.3376  -3.2894  -3.2397  -3.1887  -3.1362  -3.0823  -3.0270  -2.9701  -2.9116  -2.8515  -2.7897  -2.7263  -2.6612  -2.5946  -2.5264  -2.4568  -2.3859  -2.3141  -2.2414  -2.1681  -2.0944  -2.0207  -1.9471  -1.8738  -1.8012  -1.7293  -1.6585
3.630  -2.4043  -2.4513  -2.4981  -2.5446  -2.5910  -2.6372  -2.6831  -2.7287  -2.7741  -2.8192  -2.8640  -2.9085  -2.9526  -2.9964  -3.0399  -3.0830  -3.1256  -3.1679  -3.2098  -3.2512  -3.2921  -3.3326  -3.3725  -3.4120  -3.4508  -3.4890  -3.5266  -3.5635  -3.5997  -3.6350  -3.6695  -3.7030  -3.7355  -3.7668  -3.7968  -3.8254  -3.8525  -3.8778  -3.9012  -3.9226  -3.9416  -3.9582  -3.9722  -3.9833  -3.9913  -3.9963  -3.9979  -3.9960  -3.9907  -3.9818  -3.9694  -3.9534  -3.9340  -3.9112  -3.8852  -3.8562  -3.8243  -3.7898  -3.7529  -3.7137  -3.6723  -3.6290  -3.5838  -3.5367  -3.4879  -3.4373  -3.3849  -3.3308  -3.2749  -3.2171  -3.1575  -3.0960  -3.0326  -2.9673  -2.9001  -2.8313  -2.7608  -2.6890  -2.6159  -2.5419  -2.4671  -2.3919  -2.3165  -2.2411  -2.1659  -2.0912  -2.0171  -1.9439  -1.8718  -1.8010  -1.7315
3.620  -2.5750  -2.6215  -2.6677  -2.7137  -2.7594  -2.8049  -2.8501  -2.8950  -2.9396  -2.9838  -3.0278  -3.0713  -3.1146  -3.1574  -3.1999  -3.2419  -3.2836  -3.3248  -3.3655  -3.4058  -3.4457  -3.4850  -3.5238  -3.5621  -3.5998  -3.6369  -3.6733  -3.7091  -3.7442  -3.7784  -3.8119  -3.8444  -3.8760  -3.9064  -3.9357  -3.9637  -3.9902  -4.0152  -4.0384  -4.0598  -4.0790  -4.0960  -4.1105  -4.1223  -4.1314  -4.1373  -4.1401  -4.1396  -4.1356  -4.1280  -4.1169  -4.1021  -4.0838  -4.0620  -4.0368  -4.0083  -3.9767  -3.9421  -3.9048  -3.8648  -3.8223  -3.7773  -3.7300  -3.6805  -3.6287  -3.5746  -3.5183  -3.4598  -3.3991  -3.3362  -3.2711  -3.2039  -3.1348  -3.0638  -2.9912  -2.9173  -2.8423  -2.7664  -2.6900  -2.6132  -2.5364  -2.4597  -2.3835  -2.3077  -2.2327  -2.1586  -2.0855  -2.0137  -1.9432  -1.8743  -1.8071
3.610  -2.7482  -2.7940  -2.8395  -2.8848  -2.9298  -2.9744  -3.0187  -3.0628  -3.1064  -3.1497  -3.1927  -3.2352  -3.2774  -3.3191  -3.3605  -3.4014  -3.4419  -3.4819  -3.5215  -3.5606  -3.5992  -3.6373  -3.6749  -3.7119  -3.7484  -3.7843  -3.8195  -3.8541  -3.8880  -3.9211  -3.9535  -3.9850  -4.0156  -4.0452  -4.0737  -4.1009  -4.1269  -4.1514  -4.1744  -4.1955  -4.2148  -4.2320  -4.2468  -4.2591  -4.2688  -4.2755  -4.2791  -4.2795  -4.2764  -4.2698  -4.2596  -4.2457  -4.2281  -4.2068  -4.1819  -4.1535  -4.1216  -4.0864  -4.0480  -4.0064  -3.9618  -3.9142  -3.8637  -3.8104  -3.7542  -3.6954  -3.6339  -3.5698  -3.5033  -3.4345  -3.3636  -3.2908  -3.2165  -3.1409  -3.0644  -2.9871  -2.9095  -2.8318  -2.7541  -2.6767  -2.5997  -2.5234  -2.4478  -2.3732  -2.2996  -2.2271  -2.1560  -2.0863  -2.0181  -1.9517  -1.8869
3.600  -2.9236  -2.9686  -3.0133  -3.0576  -3.1017  -3.1454  -3.1887  -3.2317  -3.2743  -3.3165  -3.3583  -3.3998  -3.4408  -3.4813  -3.5215  -3.5612  -3.6004  -3.6392  -3.6774  -3.7153  -3.7526  -3.7894  -3.8256  -3.8613  -3.8965  -3.9311  -3.9651  -3.9984  -4.0311  -4.0630  -4.0942  -4.1246  -4.1542  -4.1828  -4.2104  -4.2368  -4.2621  -4.2860  -4.3084  -4.3292  -4.3481  -4.3651  -4.3799  -4.3923  -4.4020  -4.4090  -4.4129  -4.4136  -4.4109  -4.4046  -4.3946  -4.3809  -4.3633  -4.3419  -4.3165  -4.2873  -4.2543  -4.2174  -4.1768  -4.1325  -4.0846  -4.0331  -3.9781  -3.9199  -3.8584  -3.7940  -3.7268  -3.6571  -3.5852  -3.5114  -3.4362  -3.3597  -3.2824  -3.2046  -3.1266  -3.0485  -2.9706  -2.8931  -2.8161  -2.7397  -2.6641  -2.5894  -2.5156  -2.4430  -2.3716  -2.3015  -2.2328  -2.1656  -2.1000  -2.0360  -1.9738
3.590  -3.1003  -3.1444  -3.1881  -3.2314  -3.2743  -3.3169  -3.3591  -3.4009  -3.4423  -3.4833  -3.5239  -3.5640  -3.6037  -3.6430  -3.6818  -3.7201  -3.7579  -3.7953  -3.8322  -3.8686  -3.9045  -3.9399  -3.9747  -4.0090  -4.0428  -4.0759  -4.1085  -4.1404  -4.1717  -4.2023  -4.2322  -4.2613  -4.2895  -4.3169  -4.3432  -4.3685  -4.3926  -4.4154  -4.4368  -4.4566  -4.4747  -4.4908  -4.5048  -4.5164  -4.5255  -4.5318  -4.5351  -4.5352  -4.5319  -4.5250  -4.5144  -4.4999  -4.4813  -4.4587  -4.4319  -4.4009  -4.3656  -4.3260  -4.2821  -4.2341  -4.1820  -4.1259  -4.0662  -4.0029  -3.9365  -3.8674  -3.7958  -3.7224  -3.6473  -3.5711  -3.4941  -3.4167  -3.3390  -3.2613  -3.1839  -3.1068  -3.0302  -2.9543  -2.8790  -2.8046  -2.7310  -2.6585  -2.5871  -2.5168  -2.4478  -2.3801  -2.3138  -2.2490  -2.1856  -2.1237  -2.0634
3.580  -3.2780  -3.3209  -3.3635  -3.4056  -3.4473  -3.4887  -3.5296  -3.5701  -3.6102  -3.6498  -3.6890  -3.7277  -3.7660  -3.8038  -3.8412  -3.8780  -3.9144  -3.9503  -3.9857  -4.0206  -4.0550  -4.0888  -4.1221  -4.1549  -4.1871  -4.2188  -4.2498  -4.2802  -4.3100  -4.3390  -4.3673  -4.3948  -4.4215  -4.4473  -4.4721  -4.4958  -4.5183  -4.5395  -4.5593  -4.5775  -4.5940  -4.6085  -4.6209  -4.6309  -4.6384  -4.6431  -4.6447  -4.6431  -4.6381  -4.6293  -4.6168  -4.6001  -4.5793  -4.5542  -4.5247  -4.4906  -4.4519  -4.4087  -4.3610  -4.3090  -4.2528  -4.1927  -4.1292  -4.0626  -3.9933  -3.9219  -3.8488  -3.7743  -3.6990  -3.6231  -3.5469  -3.4706  -3.3944  -3.3185  -3.2430  -3.1680  -3.0937  -3.0200  -2.9471  -2.8751  -2.8040  -2.7339  -2.6649  -2.5970  -2.5303  -2.4648  -2.4005  -2.3374  -2.2756  -2.2149  -2.1556
3.570  -3.4560  -3.4976  -3.5389  -3.5797  -3.6200  -3.6600  -3.6995  -3.7386  -3.7772  -3.8153  -3.8530  -3.8903  -3.9270  -3.9633  -3.9991  -4.0344  -4.0692  -4.1035  -4.1373  -4.1706  -4.2033  -4.2356  -4.2672  -4.2983  -4.3289  -4.3588  -4.3881  -4.4167  -4.4447  -4.4719  -4.4984  -4.5240  -4.5487  -4.5725  -4.5952  -4.6168  -4.6372  -4.6562  -4.6738  -4.6896  -4.7037  -4.7157  -4.7255  -4.7329  -4.7376  -4.7395  -4.7383  -4.7337  -4.7255  -4.7136  -4.6978  -4.6778  -4.6535  -4.6249  -4.5918  -4.5541  -4.5120  -4.4655  -4.4147  -4.3599  -4.3014  -4.2396  -4.1748  -4.1076  -4.0383  -3.9674  -3.8953  -3.8224  -3.7489  -3.6751  -3.6012  -3.5273  -3.4536  -3.3803  -3.3074  -3.2350  -3.1632  -3.0922  -3.0218  -2.9523  -2.8837  -2.8159  -2.7491  -2.6831  -2.6181  -2.5539  -2.4906  -2.4282  -2.3667  -2.3061  -2.2465
3.560  -3.6336  -3.6738  -3.7136  -3.7529  -3.7918  -3.8302  -3.8682  -3.9057  -3.9428  -3.9793  -4.0154  -4.0510  -4.0862  -4.1208  -4.1549  -4.1885  -4.2216  -4.2542  -4.2863  -4.3178  -4.3488  -4.3792  -4.4091  -4.4383  -4.4669  -4.4948  -4.5221  -4.5486  -4.5744  -4.5994  -4.6236  -4.6468  -4.6691  -4.6903  -4.7105  -4.7293  -4.7468  -4.7629  -4.7773  -4.7899  -4.8006  -4.8091  -4.8153  -4.8189  -4.8197  -4.8176  -4.8122  -4.8035  -4.7912  -4.7751  -4.7553  -4.7314  -4.7035  -4.6716  -4.6355  -4.5953  -4.5511  -4.5030  -4.4513  -4.3961  -4.3378  -4.2768  -4.2134  -4.1480  -4.0809  -4.0126  -3.9433  -3.8732  -3.8027  -3.7319  -3.6610  -3.5901  -3.5193  -3.4488  -3.3787  -3.3091  -3.2400  -3.1714  -3.1035  -3.0362  -2.9695  -2.9033  -2.8377  -2.7726  -2.7079  -2.6438  -2.5800  -2.5168  -2.4543  -2.3926  -2.3320
3.550  -3.8101  -3.8487  -3.8869  -3.9246  -3.9619  -3.9987  -4.0350  -4.0709  -4.1062  -4.1411  -4.1755  -4.2093  -4.2427  -4.2755  -4.3079  -4.3396  -4.3709  -4.4016  -4.4317  -4.4613  -4.4902  -4.5186  -4.5462  -4.5732  -4.5995  -4.6251  -4.6499  -4.6739  -4.6971  -4.7194  -4.7407  -4.7610  -4.7801  -4.7981  -4.8148  -4.8301  -4.8439  -4.8560  -4.8664  -4.8748  -4.8810  -4.8850  -4.8865  -4.8853  -4.8813  -4.8744  -4.8644  -4.8512  -4.8347  -4.8149  -4.7916  -4.7649  -4.7346  -4.7009  -4.6636  -4.6229  -4.5788  -4.5314  -4.4810  -4.4277  -4.3718  -4.3135  -4.2532  -4.1911  -4.1276  -4.0628  -3.9970  -3.9304  -3.8633  -3.7958  -3.7281  -3.6602  -3.5925  -3.5248  -3.4574  -3.3903  -3.3235  -3.2569  -3.1906  -3.1245  -3.0586  -2.9927  -2.9267  -2.8608  -2.7949  -2.7290  -2.6634  -2.5982  -2.5338  -2.4704  -2.4086
3.540  -3.9847  -4.0216  -4.0581  -4.0941  -4.1296  -4.1647  -4.1992  -4.2332  -4.2668  -4.2998  -4.3323  -4.3642  -4.3957  -4.4265  -4.4569  -4.4866  -4.5157  -4.5442  -4.5721  -4.5993  -4.6259  -4.6517  -4.6768  -4.7011  -4.7246  -4.7473  -4.7692  -4.7900  -4.8099  -4.8288  -4.8465  -4.8630  -4.8782  -4.8921  -4.9045  -4.9153  -4.9244  -4.9317  -4.9370  -4.9402  -4.9413  -4.9401  -4.9365  -4.9305  -4.9219  -4.9107  -4.8969  -4.8803  -4.8611  -4.8390  -4.8141  -4.7863  -4.7557  -4.7221  -4.6857  -4.6464  -4.6043  -4.5594  -4.5119  -4.4620  -4.4097  -4.3553  -4.2989  -4.2408  -4.1812  -4.1203  -4.0583  -3.9953  -3.9316  -3.8674  -3.8028  -3.7380  -3.6729  -3.6078  -3.5425  -3.4771  -3.4116  -3.3458  -3.2796  -3.2131  -3.1460  -3.0783  -3.0101  -2.9415  -2.8727  -2.8039  -2.7356  -2.6680  -2.6018  -2.5373  -2.4749
3.530  -4.1566  -4.1917  -4.2263  -4.2605  -4.2941  -4.3272  -4.3598  -4.3919  -4.4234  -4.4543  -4.4847  -4.5145  -4.5438  -4.5723  -4.6003  -4.6276  -4.6542  -4.6801  -4.7053  -4.7297  -4.7533  -4.7761  -4.7981  -4.8191  -4.8393  -4.8584  -4.8764  -4.8934  -4.9091  -4.9237  -4.9369  -4.9487  -4.9591  -4.9679  -4.9751  -4.9805  -4.9843  -4.9862  -4.9862  -4.9844  -4.9806  -4.9749  -4.9673  -4.9576  -4.9460  -4.9322  -4.9164  -4.8985  -4.8784  -4.8560  -4.8314  -4.8044  -4.7751  -4.7435  -4.7094  -4.6729  -4.6339  -4.5926  -4.5489  -4.5030  -4.4548  -4.4046  -4.3524  -4.2984  -4.2427  -4.1857  -4.1273  -4.0679  -4.0075  -3.9463  -3.8845  -3.8220  -3.7590  -3.6953  -3.6309  -3.5657  -3.4996  -3.4325  -3.3643  -3.2950  -3.2246  -3.1533  -3.0812  -3.0088  -2.9364  -2.8646  -2.7939  -2.7249  -2.6579  -2.5935  -2.5319
3.520  -4.3248  -4.3579  -4.3906  -4.4226  -4.4542  -4.4851  -4.5155  -4.5454  -4.5746  -4.6031  -4.6311  -4.6583  -4.6849  -4.7107  -4.7358  -4.7602  -4.7837  -4.8065  -4.8283  -4.8493  -4.8694  -4.8884  -4.9065  -4.9234  -4.9392  -4.9538  -4.9672  -4.9793  -4.9900  -4.9993  -5.0072  -5.0136  -5.0185  -5.0219  -5.0237  -5.0241  -5.0229  -5.0203  -5.0162  -5.0107  -5.0038  -4.9954  -4.9856  -4.9743  -4.9616  -4.9472  -4.9313  -4.9138  -4.8945  -4.8734  -4.8505  -4.8258  -4.7990  -4.7702  -4.7393  -4.7063  -4.6711  -4.6336  -4.5940  -4.5521  -4.5080  -4.4619  -4.4137  -4.3636  -4.3117  -4.2583  -4.2033  -4.1470  -4.0894  -4.0306  -3.9705  -3.9092  -3.8466  -3.7825  -3.7168  -3.6494  -3.5803  -3.5095  -3.4369  -3.3629  -3.2877  -3.2117  -3.1353  -3.0593  -2.9841  -2.9104  -2.8388  -2.7698  -2.7038  -2.6411  -2.5817
3.510  -4.4881  -4.5190  -4.5494  -4.5791  -4.6082  -4.6367  -4.6645  -4.6916  -4.7180  -4.7437  -4.7686  -4.7928  -4.8161  -4.8386  -4.8603  -4.8810  -4.9008  -4.9196  -4.9374  -4.9541  -4.9696  -4.9840  -4.9971  -5.0090  -5.0196  -5.0289  -5.0368  -5.0434  -5.0486  -5.0525  -5.0551  -5.0564  -5.0565  -5.0554  -5.0533  -5.0501  -5.0458  -5.0406  -5.0343  -5.0272  -5.0190  -5.0099  -4.9998  -4.9886  -4.9764  -4.9630  -4.9484  -4.9326  -4.9154  -4.8967  -4.8764  -4.8545  -4.8308  -4.8053  -4.7779  -4.7484  -4.7169  -4.6831  -4.6473  -4.6092  -4.5689  -4.5265  -4.4820  -4.4355  -4.3870  -4.3366  -4.2843  -4.2302  -4.1741  -4.1161  -4.0559  -3.9936  -3.9288  -3.8617  -3.7920  -3.7199  -3.6455  -3.5690  -3.4908  -3.4114  -3.3313  -3.2511  -3.1715  -3.0933  -3.0171  -2.9435  -2.8730  -2.8059  -2.7425  -2.6829  -2.6269
3.500  -4.6447  -4.6730  -4.7006  -4.7275  -4.7536  -4.7790  -4.8037  -4.8275  -4.8505  -4.8727  -4.8940  -4.9143  -4.9337  -4.9521  -4.9694  -4.9856  -5.0007  -5.0146  -5.0273  -5.0387  -5.0489  -5.0578  -5.0654  -5.0717  -5.0768  -5.0807  -5.0834  -5.0851  -5.0857  -5.0854  -5.0842  -5.0822  -5.0794  -5.0760  -5.0718  -5.0670  -5.0616  -5.0557  -5.0491  -5.0420  -5.0342  -5.0259  -5.0169  -5.0072  -4.9967  -4.9854  -4.9731  -4.9597  -4.9452  -4.9293  -4.9120  -4.8931  -4.8725  -4.8501  -4.8259  -4.7996  -4.7713  -4.7409  -4.7083  -4.6735  -4.6366  -4.5974  -4.5559  -4.5122  -4.4661  -4.4176  -4.3664  -4.3126  -4.2558  -4.1960  -4.1330  -4.0666  -3.9970  -3.9241  -3.8483  -3.7699  -3.6892  -3.6067  -3.5232  -3.4392  -3.3555  -3.2729  -3.1921  -3.1139  -3.0389  -2.9675  -2.9000  -2.8365  -2.7771  -2.7215  -2.6696
3.490  -4.7917  -4.8167  -4.8409  -4.8643  -4.8868  -4.9084  -4.9292  -4.9490  -4.9677  -4.9855  -5.0021  -5.0177  -5.0321  -5.0452  -5.0572  -5.0679  -5.0774  -5.0856  -5.0926  -5.0984  -5.1030  -5.1065  -5.1090  -5.1104  -5.1110  -5.1108  -5.1099  -5.1083  -5.1060  -5.1033  -5.1000  -5.0963  -5.0923  -5.0878  -5.0831  -5.0781  -5.0728  -5.0673  -5.0615  -5.0554  -5.0490  -5.0422  -5.0351  -5.0275  -5.0193  -5.0104  -5.0006  -4.9899  -4.9781  -4.9650  -4.9505  -4.9344  -4.9166  -4.8970  -4.8756  -4.8522  -4.8268  -4.7993  -4.7696  -4.7377  -4.7035  -4.6667  -4.6273  -4.5851  -4.5398  -4.4910  -4.4387  -4.3824  -4.3220  -4.2573  -4.1885  -4.1157  -4.0391  -3.9592  -3.8764  -3.7913  -3.7045  -3.6169  -3.5293  -3.4424  -3.3573  -3.2748  -3.1954  -3.1198  -3.0482  -2.9809  -2.9180  -2.8593  -2.8047  -2.7540  -2.7069
3.480  -4.9248  -4.9458  -4.9658  -4.9849  -5.0029  -5.0198  -5.0357  -5.0504  -5.0639  -5.0762  -5.0872  -5.0971  -5.1057  -5.1131  -5.1193  -5.1244  -5.1284  -5.1314  -5.1334  -5.1345  -5.1349  -5.1346  -5.1336  -5.1321  -5.1301  -5.1276  -5.1248  -5.1216  -5.1182  -5.1146  -5.1108  -5.1069  -5.1029  -5.0988  -5.0948  -5.0907  -5.0865  -5.0824  -5.0782  -5.0740  -5.0696  -5.0651  -5.0603  -5.0551  -5.0494  -5.0430  -5.0358  -5.0276  -5.0182  -5.0075  -4.9954  -4.9816  -4.9662  -4.9490  -4.9299  -4.9089  -4.8858  -4.8606  -4.8330  -4.8028  -4.7699  -4.7340  -4.6946  -4.6514  -4.6039  -4.5518  -4.4949  -4.4328  -4.3657  -4.2937  -4.2172  -4.1366  -4.0526  -3.9656  -3.8765  -3.7859  -3.6949  -3.6045  -3.5155  -3.4289  -3.3455  -3.2658  -3.1903  -3.1193  -3.0528  -2.9909  -2.9335  -2.8805  -2.8314  -2.7860  -2.7438
3.470  -5.0389  -5.0548  -5.0697  -5.0834  -5.0958  -5.1071  -5.1171  -5.1260  -5.1336  -5.1401  -5.1455  -5.1498  -5.1531  -5.1554  -5.1570  -5.1577  -5.1578  -5.1572  -5.1561  -5.1546  -5.1526  -5.1502  -5.1476  -5.1447  -5.1417  -5.1384  -5.1351  -5.1318  -5.1285  -5.1252  -5.1220  -5.1190  -5.1160  -5.1133  -5.1107  -5.1083  -5.1060  -5.1039  -5.1019  -5.0998  -5.0978  -5.0956  -5.0931  -5.0902  -5.0867  -5.0826  -5.0775  -5.0713  -5.0640  -5.0553  -5.0451  -5.0333  -5.0198  -5.0045  -4.9871  -4.9677  -4.9459  -4.9217  -4.8946  -4.8643  -4.8305  -4.7926  -4.7501  -4.7026  -4.6495  -4.5907  -4.5260  -4.4557  -4.3802  -4.2999  -4.2156  -4.1277  -4.0371  -3.9446  -3.8511  -3.7577  -3.6655  -3.5754  -3.4884  -3.4050  -3.3258  -3.2511  -3.1811  -3.1160  -3.0558  -3.0003  -2.9492  -2.9022  -2.8590  -2.8190  -2.7819
3.460  -5.1276  -5.1377  -5.1466  -5.1543  -5.1609  -5.1665  -5.1709  -5.1744  -5.1770  -5.1787  -5.1797  -5.1801  -5.1798  -5.1790  -5.1777  -5.1761  -5.1741  -5.1718  -5.1692  -5.1665  -5.1636  -5.1606  -5.1576  -5.1546  -5.1517  -5.1488  -5.1461  -5.1436  -5.1413  -5.1393  -5.1375  -5.1360  -5.1348  -5.1339  -5.1333  -5.1329  -5.1329  -5.1329  -5.1331  -5.1333  -5.1333  -5.1332  -5.1327  -5.1317  -5.1300  -5.1276  -5.1242  -5.1198  -5.1141  -5.1070  -5.0983  -5.0879  -5.0756  -5.0613  -5.0446  -5.0253  -5.0031  -4.9777  -4.9486  -4.9154  -4.8774  -4.8342  -4.7851  -4.7298  -4.6681  -4.6002  -4.5264  -4.4474  -4.3636  -4.2759  -4.1849  -4.0914  -3.9964  -3.9009  -3.8062  -3.7134  -3.6232  -3.5365  -3.4539  -3.3758  -3.3026  -3.2344  -3.1713  -3.1133  -3.0602  -3.0117  -2.9673  -2.9266  -2.8892  -2.8545  -2.8222
3.450  -5.1874  -5.1919  -5.1955  -5.1982  -5.2001  -5.2012  -5.2017  -5.2016  -5.2010  -5.2000  -5.1986  -5.1968  -5.1947  -5.1925  -5.1900  -5.1873  -5.1846  -5.1818  -5.1790  -5.1762  -5.1735  -5.1710  -5.1686  -5.1664  -5.1644  -5.1627  -5.1614  -5.1603  -5.1596  -5.1594  -5.1594  -5.1599  -5.1608  -5.1620  -5.1635  -5.1652  -5.1672  -5.1692  -5.1713  -5.1732  -5.1750  -5.1764  -5.1775  -5.1780  -5.1778  -5.1768  -5.1748  -5.1716  -5.1671  -5.1610  -5.1531  -5.1432  -5.1308  -5.1158  -5.0978  -5.0764  -5.0511  -5.0216  -4.9873  -4.9477  -4.9022  -4.8504  -4.7918  -4.7267  -4.6552  -4.5780  -4.4957  -4.4090  -4.3185  -4.2250  -4.1295  -4.0329  -3.9366  -3.8416  -3.7489  -3.6594  -3.5738  -3.4926  -3.4164  -3.3453  -3.2795  -3.2192  -3.1641  -3.1140  -3.0685  -3.0271  -2.9894  -2.9548  -2.9229  -2.8932  -2.8652
3.440  -5.2223  -5.2229  -5.2230  -5.2225  -5.2216  -5.2204  -5.2188  -5.2169  -5.2148  -5.2125  -5.2101  -5.2075  -5.2049  -5.2022  -5.1996  -5.1970  -5.1945  -5.1922  -5.1900  -5.1881  -5.1864  -5.1849  -5.1838  -5.1830  -5.1826  -5.1826  -5.1830  -5.1839  -5.1852  -5.1869  -5.1890  -5.1915  -5.1944  -5.1975  -5.2008  -5.2043  -5.2079  -5.2114  -5.2150  -5.2183  -5.2214  -5.2242  -5.2265  -5.2283  -5.2292  -5.2292  -5.2281  -5.2255  -5.2213  -5.2151  -5.2065  -5.1951  -5.1806  -5.1624  -5.1402  -5.1135  -5.0820  -5.0452  -5.0025  -4.9536  -4.8979  -4.8355  -4.7666  -4.6916  -4.6113  -4.5263  -4.4371  -4.3445  -4.2492  -4.1524  -4.0552  -3.9587  -3.8642  -3.7724  -3.6843  -3.6004  -3.5214  -3.4477  -3.3794  -3.3169  -3.2600  -3.2085  -3.1620  -3.1201  -3.0822  -3.0478  -3.0163  -2.9873  -2.9603  -2.9349  -2.9108
3.430  -5.2416  -5.2401  -5.2384  -5.2365  -5.2343  -5.2321  -5.2297  -5.2272  -5.2247  -5.2222  -5.2197  -5.2173  -5.2151  -5.2129  -5.2110  -5.2093  -5.2078  -5.2065  -5.2056  -5.2050  -5.2048  -5.2049  -5.2055  -5.2065  -5.2080  -5.2099  -5.2123  -5.2151  -5.2183  -5.2220  -5.2259  -5.2301  -5.2346  -5.2392  -5.2440  -5.2488  -5.2537  -5.2585  -5.2633  -5.2678  -5.2721  -5.2759  -5.2791  -5.2816  -5.2830  -5.2833  -5.2819  -5.2787  -5.2732  -5.2648  -5.2531  -5.2377  -5.2180  -5.1935  -5.1641  -5.1292  -5.0885  -5.0416  -4.9882  -4.9281  -4.8615  -4.7889  -4.7107  -4.6277  -4.5402  -4.4490  -4.3546  -4.2582  -4.1607  -4.0635  -3.9677  -3.8742  -3.7840  -3.6978  -3.6164  -3.5402  -3.4698  -3.4053  -3.3468  -3.2941  -3.2469  -3.2046  -3.1668  -3.1327  -3.1018  -3.0737  -3.0478  -3.0236  -3.0008  -2.9791  -2.9582
3.420  -5.2535  -5.2513  -5.2489  -5.2466  -5.2442  -5.2419  -5.2396  -5.2374  -5.2354  -5.2335  -5.2317  -5.2302  -5.2289  -5.2279  -5.2272  -5.2267  -5.2267  -5.2269  -5.2276  -5.2287  -5.2303  -5.2323  -5.2348  -5.2377  -5.2411  -5.2449  -5.2491  -5.2537  -5.2585  -5.2636  -5.2690  -5.2746  -5.2803  -5.2862  -5.2922  -5.2983  -5.3043  -5.3102  -5.3159  -5.3214  -5.3263  -5.3306  -5.3340  -5.3363  -5.3371  -5.3362  -5.3329  -5.3268  -5.3174  -5.3041  -5.2864  -5.2637  -5.2358  -5.2022  -5.1628  -5.1173  -5.0654  -5.0070  -4.9422  -4.8715  -4.7953  -4.7141  -4.6284  -4.5387  -4.4455  -4.3498  -4.2526  -4.1550  -4.0584  -3.9636  -3.8717  -3.7837  -3.7002  -3.6220  -3.5497  -3.4835  -3.4237  -3.3701  -3.3223  -3.2799  -3.2423  -3.2088  -3.1789  -3.1518  -3.1271  -3.1042  -3.0829  -3.0628  -3.0435  -3.0248  -3.0065
3.410  -5.2638  -5.2616  -5.2596  -5.2576  -5.2558  -5.2542  -5.2527  -5.2514  -5.2504  -5.2495  -5.2490  -5.2487  -5.2488  -5.2492  -5.2500  -5.2512  -5.2528  -5.2549  -5.2574  -5.2604  -5.2639  -5.2677  -5.2720  -5.2767  -5.2818  -5.2871  -5.2928  -5.2987  -5.3049  -5.3113  -5.3179  -5.3247  -5.3316  -5.3387  -5.3457  -5.3528  -5.3597  -5.3663  -5.3725  -5.3781  -5.3830  -5.3867  -5.3891  -5.3897  -5.3881  -5.3837  -5.3759  -5.3641  -5.3478  -5.3265  -5.2996  -5.2670  -5.2284  -5.1836  -5.1326  -5.0752  -5.0117  -4.9423  -4.8676  -4.7879  -4.7035  -4.6151  -4.5229  -4.4279  -4.3311  -4.2335  -4.1362  -4.0405  -3.9474  -3.8578  -3.7726  -3.6927  -3.6188  -3.5513  -3.4904  -3.4361  -3.3881  -3.3459  -3.3088  -3.2761  -3.2472  -3.2214  -3.1981  -3.1768  -3.1571  -3.1386  -3.1210  -3.1040  -3.0875  -3.0713  -3.0553
3.400  -5.2770  -5.2757  -5.2745  -5.2735  -5.2727  -5.2722  -5.2719  -5.2718  -5.2721  -5.2727  -5.2736  -5.2749  -5.2766  -5.2788  -5.2813  -5.2844  -5.2879  -5.2918  -5.2962  -5.3010  -5.3061  -5.3116  -5.3174  -5.3235  -5.3300  -5.3366  -5.3436  -5.3508  -5.3583  -5.3660  -5.3738  -5.3818  -5.3898  -5.3978  -5.4057  -5.4133  -5.4205  -5.4271  -5.4329  -5.4377  -5.4412  -5.4428  -5.4422  -5.4388  -5.4320  -5.4212  -5.4057  -5.3851  -5.3588  -5.3267  -5.2884  -5.2440  -5.1934  -5.1366  -5.0737  -5.0051  -4.9312  -4.8523  -4.7688  -4.6810  -4.5895  -4.4949  -4.3982  -4.3004  -4.2028  -4.1063  -4.0121  -3.9212  -3.8346  -3.7533  -3.6781  -3.6095  -3.5480  -3.4933  -3.4454  -3.4036  -3.3672  -3.3355  -3.3078  -3.2834  -3.2616  -3.2420  -3.2239  -3.2072  -3.1913  -3.1761  -3.1614  -3.1471  -3.1329  -3.1188  -3.1049
3.390  -5.2907  -5.2903  -5.2901  -5.2902  -5.2905  -5.2912  -5.2921  -5.2935  -5.2952  -5.2974  -5.3000  -5.3030  -5.3065  -5.3104  -5.3148  -5.3195  -5.3247  -5.3302  -5.3360  -5.3422  -5.3486  -5.3554  -5.3624  -5.3697  -5.3773  -5.3852  -5.3933  -5.4017  -5.4102  -5.4188  -5.4275  -5.4361  -5.4445  -5.4526  -5.4603  -5.4674  -5.4738  -5.4791  -5.4830  -5.4852  -5.4852  -5.4824  -5.4761  -5.4657  -5.4506  -5.4301  -5.4038  -5.3715  -5.3329  -5.2881  -5.2369  -5.1796  -5.1162  -5.0472  -4.9729  -4.8937  -4.8099  -4.7220  -4.6304  -4.5359  -4.4391  -4.3413  -4.2433  -4.1464  -4.0514  -3.9596  -3.8720  -3.7896  -3.7135  -3.6444  -3.5825  -3.5279  -3.4804  -3.4393  -3.4040  -3.3737  -3.3475  -3.3247  -3.3047  -3.2869  -3.2708  -3.2559  -3.2420  -3.2289  -3.2162  -3.2039  -3.1918  -3.1798  -3.1680  -3.1562  -3.1445
3.380  -5.3087  -5.3094  -5.3105  -5.3119  -5.3136  -5.3158  -5.3184  -5.3215  -5.3250  -5.3289  -5.3333  -5.3381  -5.3432  -5.3487  -5.3546  -5.3607  -5.3672  -5.3739  -5.3810  -5.3884  -5.3960  -5.4040  -5.4122  -5.4208  -5.4295  -5.4385  -5.4475  -5.4567  -5.4657  -5.4747  -5.4834  -5.4919  -5.4998  -5.5072  -5.5137  -5.5192  -5.5233  -5.5257  -5.5258  -5.5231  -5.5169  -5.5065  -5.4912  -5.4705  -5.4438  -5.4108  -5.3716  -5.3259  -5.2740  -5.2159  -5.1517  -5.0818  -5.0065  -4.9264  -4.8419  -4.7533  -4.6610  -4.5659  -4.4686  -4.3702  -4.2717  -4.1740  -4.0781  -3.9854  -3.8968  -3.8137  -3.7370  -3.6675  -3.6057  -3.5515  -3.5046  -3.4646  -3.4305  -3.4016  -3.3770  -3.3560  -3.3378  -3.3218  -3.3076  -3.2947  -3.2827  -3.2715  -3.2608  -3.2505  -3.2404  -3.2305  -3.2208  -3.2111  -3.2015  -3.1919  -3.1823
3.370  -5.3320  -5.3342  -5.3368  -5.3399  -5.3435  -5.3474  -5.3518  -5.3566  -5.3618  -5.3674  -5.3732  -5.3794  -5.3859  -5.3927  -5.3998  -5.4071  -5.4148  -5.4228  -5.4311  -5.4397  -5.4486  -5.4577  -5.4670  -5.4765  -5.4859  -5.4954  -5.5048  -5.5139  -5.5228  -5.5313  -5.5393  -5.5466  -5.5532  -5.5586  -5.5626  -5.5649  -5.5648  -5.5618  -5.5553  -5.5445  -5.5287  -5.5073  -5.4798  -5.4459  -5.4056  -5.3590  -5.3060  -5.2468  -5.1814  -5.1103  -5.0337  -4.9523  -4.8665  -4.7767  -4.6833  -4.5870  -4.4887  -4.3893  -4.2896  -4.1909  -4.0940  -4.0002  -3.9109  -3.8271  -3.7501  -3.6807  -3.6192  -3.5658  -3.5200  -3.4811  -3.4485  -3.4211  -3.3982  -3.3789  -3.3624  -3.3482  -3.3358  -3.3247  -3.3146  -3.3052  -3.2964  -3.2880  -3.2798  -3.2718  -3.2640  -3.2562  -3.2486  -3.2410  -3.2334  -3.2257  -3.2180
3.360  -5.3620  -5.3660  -5.3705  -5.3754  -5.3806  -5.3862  -5.3922  -5.3984  -5.4049  -5.4118  -5.4188  -5.4262  -5.4339  -5.4419  -5.4503  -5.4589  -5.4679  -5.4771  -5.4866  -5.4962  -5.5060  -5.5158  -5.5256  -5.5352  -5.5447  -5.5539  -5.5627  -5.5711  -5.5790  -5.5861  -5.5924  -5.5976  -5.6013  -5.6031  -5.6026  -5.5990  -5.5918  -5.5802  -5.5635  -5.5411  -5.5125  -5.4775  -5.4360  -5.3882  -5.3339  -5.2733  -5.2065  -5.1339  -5.0558  -4.9727  -4.8853  -4.7938  -4.6989  -4.6010  -4.5011  -4.4001  -4.2990  -4.1989  -4.1008  -4.0061  -3.9161  -3.8320  -3.7551  -3.6861  -3.6255  -3.5731  -3.5286  -3.4913  -3.4602  -3.4345  -3.4132  -3.3955  -3.3807  -3.3682  -3.3574  -3.3480  -3.3395  -3.3318  -3.3247  -3.3179  -3.3114  -3.3052  -3.2991  -3.2931  -3.2872  -3.2813  -3.2754  -3.2695  -3.2636  -3.2575  -3.2513
3.350  -5.3997  -5.4054  -5.4115  -5.4178  -5.4244  -5.4313  -5.4384  -5.4459  -5.4536  -5.4616  -5.4700  -5.4787  -5.4877  -5.4970  -5.5066  -5.5164  -5.5263  -5.5363  -5.5464  -5.5564  -5.5664  -5.5760  -5.5855  -5.5946  -5.6032  -5.6114  -5.6190  -5.6258  -5.6318  -5.6365  -5.6396  -5.6408  -5.6394  -5.6349  -5.6267  -5.6140  -5.5962  -5.5725  -5.5426  -5.5062  -5.4633  -5.4140  -5.3583  -5.2961  -5.2277  -5.1533  -5.0735  -4.9886  -4.8993  -4.8059  -4.7089  -4.6090  -4.5071  -4.4042  -4.3014  -4.1997  -4.1005  -4.0050  -3.9145  -3.8306  -3.7542  -3.6862  -3.6268  -3.5760  -3.5331  -3.4975  -3.4682  -3.4442  -3.4245  -3.4085  -3.3952  -3.3842  -3.3749  -3.3669  -3.3598  -3.3535  -3.3478  -3.3425  -3.3375  -3.3327  -3.3280  -3.3235  -3.3190  -3.3146  -3.3102  -3.3058  -3.3014  -3.2968  -3.2921  -3.2871  -3.2819
3.340  -5.4444  -5.4513  -5.4586  -5.4661  -5.4739  -5.4821  -5.4905  -5.4992  -5.5083  -5.5177  -5.5273  -5.5372  -5.5473  -5.5575  -5.5678  -5.5781  -5.5884  -5.5985  -5.6083  -5.6179  -5.6272  -5.6360  -5.6444  -5.6523  -5.6595  -5.6659  -5.6713  -5.6753  -5.6777  -5.6779  -5.6754  -5.6697  -5.6602  -5.6461  -5.6268  -5.6016  -5.5701  -5.5321  -5.4876  -5.4367  -5.3794  -5.3156  -5.2455  -5.1693  -5.0875  -5.0007  -4.9092  -4.8136  -4.7143  -4.6121  -4.5079  -4.4029  -4.2982  -4.1950  -4.0947  -3.9987  -3.9083  -3.8250  -3.7497  -3.6832  -3.6257  -3.5768  -3.5360  -3.5024  -3.4749  -3.4527  -3.4347  -3.4202  -3.4084  -3.3987  -3.3906  -3.3838  -3.3780  -3.3729  -3.3683  -3.3642  -3.3603  -3.3567  -3.3532  -3.3498  -3.3466  -3.3433  -3.3401  -3.3369  -3.3336  -3.3302  -3.3267  -3.3229  -3.3190  -3.3148  -3.3102
3.330  -5.4951  -5.5033  -5.5119  -5.5207  -5.5299  -5.5394  -5.5491  -5.5591  -5.5693  -5.5797  -5.5902  -5.6007  -5.6112  -5.6216  -5.6318  -5.6418  -5.6515  -5.6609  -5.6699  -5.6785  -5.6865  -5.6940  -5.7007  -5.7065  -5.7111  -5.7142  -5.7155  -5.7145  -5.7106  -5.7035  -5.6924  -5.6767  -5.6556  -5.6286  -5.5953  -5.5555  -5.5093  -5.4567  -5.3977  -5.3322  -5.2602  -5.1822  -5.0984  -5.0094  -4.9156  -4.8175  -4.7157  -4.6111  -4.5045  -4.3974  -4.2909  -4.1864  -4.0854  -3.9893  -3.8996  -3.8175  -3.7440  -3.6797  -3.6245  -3.5781  -3.5397  -3.5084  -3.4830  -3.4626  -3.4463  -3.4332  -3.4227  -3.4142  -3.4073  -3.4015  -3.3966  -3.3925  -3.3888  -3.3856  -3.3826  -3.3799  -3.3773  -3.3748  -3.3724  -3.3701  -3.3677  -3.3654  -3.3630  -3.3605  -3.3578  -3.3551  -3.3521  -3.3488  -3.3453  -3.3414  -3.3371
3.320  -5.5527  -5.5623  -5.5722  -5.5823  -5.5926  -5.6031  -5.6138  -5.6245  -5.6352  -5.6458  -5.6563  -5.6667  -5.6768  -5.6866  -5.6961  -5.7052  -5.7139  -5.7221  -5.7297  -5.7366  -5.7426  -5.7476  -5.7512  -5.7532  -5.7531  -5.7506  -5.7452  -5.7364  -5.7235  -5.7059  -5.6829  -5.6539  -5.6186  -5.5769  -5.5288  -5.4745  -5.4137  -5.3464  -5.2727  -5.1927  -5.1068  -5.0156  -4.9195  -4.8189  -4.7145  -4.6073  -4.4985  -4.3894  -4.2814  -4.1760  -4.0749  -3.9794  -3.8910  -3.8109  -3.7400  -3.6785  -3.6263  -3.5828  -3.5471  -3.5182  -3.4950  -3.4766  -3.4619  -3.4502  -3.4409  -3.4335  -3.4275  -3.4226  -3.4185  -3.4151  -3.4121  -3.4096  -3.4073  -3.4052  -3.4033  -3.4014  -3.3997  -3.3980  -3.3962  -3.3945  -3.3927  -3.3909  -3.3889  -3.3868  -3.3844  -3.3819  -3.3791  -3.3760  -3.3725  -3.3687  -3.3644
3.310  -5.6177  -5.6283  -5.6391  -5.6500  -5.6609  -5.6718  -5.6826  -5.6932  -5.7037  -5.7139  -5.7239  -5.7335  -5.7427  -5.7515  -5.7597  -5.7674  -5.7744  -5.7805  -5.7857  -5.7896  -5.7920  -5.7925  -5.7909  -5.7868  -5.7796  -5.7689  -5.7540  -5.7343  -5.7092  -5.6781  -5.6408  -5.5972  -5.5474  -5.4912  -5.4287  -5.3596  -5.2840  -5.2021  -5.1143  -5.0209  -4.9226  -4.8197  -4.7130  -4.6036  -4.4927  -4.3820  -4.2730  -4.1673  -4.0666  -3.9725  -3.8863  -3.8090  -3.7413  -3.6833  -3.6346  -3.5944  -3.5617  -3.5354  -3.5145  -3.4980  -3.4849  -3.4746  -3.4664  -3.4599  -3.4547  -3.4505  -3.4471  -3.4442  -3.4418  -3.4397  -3.4379  -3.4363  -3.4348  -3.4334  -3.4321  -3.4308  -3.4295  -3.4282  -3.4268  -3.4253  -3.4238  -3.4221  -3.4202  -3.4181  -3.4157  -3.4131  -3.4102  -3.4069  -3.4032  -3.3991  -3.3945
3.300  -5.6897  -5.7008  -5.7118  -5.7228  -5.7336  -5.7442  -5.7545  -5.7646  -5.7743  -5.7837  -5.7925  -5.8009  -5.8086  -5.8157  -5.8219  -5.8271  -5.8312  -5.8338  -5.8347  -5.8337  -5.8303  -5.8243  -5.8152  -5.8025  -5.7855  -5.7637  -5.7365  -5.7034  -5.6643  -5.6189  -5.5672  -5.5093  -5.4451  -5.3743  -5.2971  -5.2137  -5.1244  -5.0296  -4.9298  -4.8253  -4.7171  -4.6061  -4.4939  -4.3823  -4.2729  -4.1677  -4.0683  -3.9763  -3.8930  -3.8193  -3.7555  -3.7015  -3.6566  -3.6200  -3.5905  -3.5669  -3.5483  -3.5336  -3.5221  -3.5130  -3.5058  -3.5001  -3.4956  -3.4919  -3.4889  -3.4865  -3.4844  -3.4827  -3.4811  -3.4798  -3.4785  -3.4773  -3.4762  -3.4751  -3.4740  -3.4728  -3.4716  -3.4703  -3.4689  -3.4673  -3.4655  -3.4635  -3.4613  -3.4588  -3.4560  -3.4529  -3.4493  -3.4454  -3.4410  -3.4361  -3.4308
3.290  -5.7579  -5.7686  -5.7791  -5.7894  -5.7993  -5.8089  -5.8180  -5.8266  -5.8347  -5.8421  -5.8488  -5.8547  -5.8596  -5.8634  -5.8659  -5.8667  -5.8658  -5.8627  -5.8572  -5.8489  -5.8373  -5.8219  -5.8022  -5.7773  -5.7470  -5.7106  -5.6682  -5.6195  -5.5646  -5.5033  -5.4355  -5.3612  -5.2803  -5.1932  -5.1003  -5.0020  -4.8986  -4.7907  -4.6793  -4.5658  -4.4519  -4.3395  -4.2304  -4.1265  -4.0295  -3.9410  -3.8619  -3.7929  -3.7341  -3.6849  -3.6446  -3.6120  -3.5860  -3.5654  -3.5492  -3.5365  -3.5266  -3.5188  -3.5127  -3.5079  -3.5041  -3.5010  -3.4985  -3.4965  -3.4949  -3.4935  -3.4923  -3.4912  -3.4903  -3.4894  -3.4886  -3.4878  -3.4869  -3.4861  -3.4852  -3.4842  -3.4832  -3.4820  -3.4806  -3.4791  -3.4774  -3.4755  -3.4732  -3.4707  -3.4678  -3.4646  -3.4610  -3.4569  -3.4524  -3.4474  -3.4419
3.280  -5.8252  -5.8349  -5.8442  -5.8530  -5.8612  -5.8689  -5.8759  -5.8821  -5.8875  -5.8919  -5.8953  -5.8974  -5.8980  -5.8969  -5.8939  -5.8887  -5.8809  -5.8702  -5.8560  -5.8378  -5.8150  -5.7870  -5.7532  -5.7134  -5.6674  -5.6151  -5.5566  -5.4915  -5.4198  -5.3414  -5.2565  -5.1654  -5.0686  -4.9664  -4.8592  -4.7479  -4.6338  -4.5183  -4.4034  -4.2911  -4.1834  -4.0822  -3.9890  -3.9052  -3.8315  -3.7682  -3.7150  -3.6712  -3.6357  -3.6073  -3.5849  -3.5673  -3.5535  -3.5427  -3.5343  -3.5278  -3.5226  -3.5186  -3.5154  -3.5129  -3.5108  -3.5092  -3.5078  -3.5067  -3.5058  -3.5049  -3.5042  -3.5036  -3.5029  -3.5023  -3.5017  -3.5011  -3.5005  -3.4997  -3.4989  -3.4981  -3.4971  -3.4959  -3.4946  -3.4931  -3.4913  -3.4893  -3.4870  -3.4844  -3.4814  -3.4780  -3.4742  -3.4700  -3.4652  -3.4600  -3.4543
3.270  -5.8884  -5.8961  -5.9032  -5.9096  -5.9152  -5.9200  -5.9238  -5.9266  -5.9282  -5.9285  -5.9272  -5.9241  -5.9189  -5.9114  -5.9013  -5.8881  -5.8712  -5.8500  -5.8239  -5.7924  -5.7550  -5.7114  -5.6616  -5.6054  -5.5428  -5.4735  -5.3973  -5.3145  -5.2252  -5.1298  -5.0288  -4.9226  -4.8118  -4.6974  -4.5809  -4.4642  -4.3494  -4.2386  -4.1337  -4.0365  -3.9485  -3.8707  -3.8035  -3.7467  -3.6998  -3.6616  -3.6312  -3.6070  -3.5881  -3.5733  -3.5618  -3.5529  -3.5459  -3.5405  -3.5362  -3.5329  -3.5302  -3.5282  -3.5265  -3.5251  -3.5240  -3.5231  -3.5224  -3.5217  -3.5212  -3.5207  -3.5202  -3.5197  -3.5193  -3.5188  -3.5183  -3.5178  -3.5172  -3.5166  -3.5158  -3.5149  -3.5139  -3.5128  -3.5114  -3.5098  -3.5080  -3.5059  -3.5035  -3.5007  -3.4975  -3.4939  -3.4899  -3.4854  -3.4804  -3.4749  -3.4690
3.260  -5.9431  -5.9480  -5.9520  -5.9551  -5.9573  -5.9583  -5.9581  -5.9565  -5.9532  -5.9480  -5.9408  -5.9310  -5.9185  -5.9026  -5.8828  -5.8584  -5.8287  -5.7934  -5.7520  -5.7044  -5.6504  -5.5899  -5.5228  -5.4487  -5.3678  -5.2801  -5.1862  -5.0863  -4.9810  -4.8708  -4.7565  -4.6396  -4.5217  -4.4050  -4.2916  -4.1837  -4.0832  -3.9916  -3.9103  -3.8397  -3.7798  -3.7302  -3.6899  -3.6576  -3.6321  -3.6121  -3.5965  -3.5843  -3.5749  -3.5676  -3.5620  -3.5575  -3.5541  -3.5514  -3.5492  -3.5475  -3.5462  -3.5451  -3.5442  -3.5435  -3.5429  -3.5424  -3.5419  -3.5415  -3.5411  -3.5408  -3.5405  -3.5401  -3.5397  -3.5394  -3.5389  -3.5384  -3.5378  -3.5372  -3.5364  -3.5355  -3.5345  -3.5333  -3.5318  -3.5301  -3.5282  -3.5259  -3.5233  -3.5203  -3.5169  -3.5130  -3.5087  -3.5039  -3.4987  -3.4929  -3.4865
3.250  -5.9857  -5.9872  -5.9876  -5.9869  -5.9849  -5.9814  -5.9762  -5.9690  -5.9596  -5.9476  -5.9325  -5.9137  -5.8907  -5.8627  -5.8292  -5.7898  -5.7442  -5.6921  -5.6336  -5.5683  -5.4961  -5.4169  -5.3308  -5.2381  -5.1393  -5.0350  -4.9254  -4.8115  -4.6944  -4.5757  -4.4576  -4.3423  -4.2319  -4.1287  -4.0343  -3.9501  -3.8767  -3.8145  -3.7628  -3.7207  -3.6870  -3.6605  -3.6397  -3.6235  -3.6109  -3.6012  -3.5937  -3.5879  -3.5833  -3.5798  -3.5770  -3.5749  -3.5732  -3.5718  -3.5707  -3.5698  -3.5691  -3.5686  -3.5681  -3.5677  -3.5673  -3.5670  -3.5667  -3.5665  -3.5662  -3.5659  -3.5657  -3.5654  -3.5650  -3.5646  -3.5642  -3.5637  -3.5631  -3.5624  -3.5616  -3.5607  -3.5595  -3.5582  -3.5566  -3.5548  -3.5526  -3.5501  -3.5473  -3.5440  -3.5403  -3.5361  -3.5315  -3.5263  -3.5207  -3.5145  -3.5077
3.240  -6.0150  -6.0127  -6.0089  -6.0036  -5.9965  -5.9872  -5.9756  -5.9612  -5.9433  -5.9214  -5.8948  -5.8629  -5.8253  -5.7814  -5.7312  -5.6743  -5.6107  -5.5402  -5.4625  -5.3777  -5.2863  -5.1885  -5.0850  -4.9762  -4.8628  -4.7458  -4.6268  -4.5077  -4.3909  -4.2788  -4.1735  -4.0769  -3.9905  -3.9152  -3.8512  -3.7980  -3.7548  -3.7203  -3.6931  -3.6718  -3.6553  -3.6426  -3.6328  -3.6252  -3.6193  -3.6147  -3.6112  -3.6084  -3.6063  -3.6046  -3.6032  -3.6021  -3.6013  -3.6006  -3.6001  -3.5996  -3.5992  -3.5989  -3.5986  -3.5984  -3.5982  -3.5980  -3.5978  -3.5975  -3.5973  -3.5971  -3.5968  -3.5966  -3.5962  -3.5958  -3.5954  -3.5948  -3.5942  -3.5934  -3.5925  -3.5914  -3.5901  -3.5886  -3.5869  -3.5848  -3.5824  -3.5796  -3.5764  -3.5728  -3.5687  -3.5641  -3.5590  -3.5534  -3.5472  -3.5405  -3.5332
3.230  -6.0305  -6.0233  -6.0143  -6.0030  -5.9890  -5.9719  -5.9509  -5.9256  -5.8951  -5.8591  -5.8168  -5.7682  -5.7129  -5.6509  -5.5818  -5.5055  -5.4220  -5.3317  -5.2349  -5.1323  -5.0243  -4.9116  -4.7950  -4.6759  -4.5564  -4.4387  -4.3253  -4.2186  -4.1205  -4.0328  -3.9562  -3.8913  -3.8374  -3.7937  -3.7589  -3.7316  -3.7103  -3.6938  -3.6811  -3.6714  -3.6638  -3.6580  -3.6536  -3.6501  -3.6474  -3.6452  -3.6436  -3.6423  -3.6412  -3.6404  -3.6398  -3.6392  -3.6388  -3.6385  -3.6382  -3.6379  -3.6377  -3.6375  -3.6374  -3.6372  -3.6370  -3.6369  -3.6367  -3.6365  -3.6363  -3.6361  -3.6358  -3.6355  -3.6351  -3.6347  -3.6342  -3.6335  -3.6328  -3.6319  -3.6308  -3.6295  -3.6280  -3.6262  -3.6242  -3.6218  -3.6190  -3.6158  -3.6121  -3.6080  -3.6034  -3.5983  -3.5926  -3.5863  -3.5795  -3.5721  -3.5641
3.220  -6.0301  -6.0165  -6.0000  -5.9799  -5.9556  -5.9265  -5.8919  -5.8513  -5.8042  -5.7505  -5.6899  -5.6222  -5.5473  -5.4651  -5.3759  -5.2803  -5.1787  -5.0718  -4.9600  -4.8442  -4.7257  -4.6062  -4.4883  -4.3743  -4.2669  -4.1681  -4.0798  -4.0029  -3.9379  -3.8841  -3.8407  -3.8062  -3.7792  -3.7583  -3.7422  -3.7299  -3.7204  -3.7131  -3.7075  -3.7032  -3.6998  -3.6973  -3.6952  -3.6937  -3.6924  -3.6914  -3.6907  -3.6901  -3.6896  -3.6892  -3.6889  -3.6886  -3.6884  -3.6882  -3.6880  -3.6879  -3.6878  -3.6876  -3.6875  -3.6874  -3.6872  -3.6871  -3.6869  -3.6867  -3.6865  -3.6862  -3.6859  -3.6855  -3.6850  -3.6845  -3.6838  -3.6830  -3.6820  -3.6809  -3.6795  -3.6779  -3.6760  -3.6738  -3.6712  -3.6683  -3.6649  -3.6610  -3.6567  -3.6518  -3.6465  -3.6405  -3.6339  -3.6268  -3.6191  -3.6108  -3.6018
3.210  -6.0091  -5.9858  -5.9580  -5.9249  -5.8860  -5.8407  -5.7886  -5.7297  -5.6636  -5.5903  -5.5097  -5.4220  -5.3279  -5.2278  -5.1226  -5.0126  -4.8986  -4.7817  -4.6635  -4.5464  -4.4329  -4.3257  -4.2273  -4.1393  -4.0631  -3.9988  -3.9460  -3.9036  -3.8702  -3.8441  -3.8240  -3.8086  -3.7968  -3.7878  -3.7810  -3.7757  -3.7716  -3.7685  -3.7661  -3.7642  -3.7628  -3.7617  -3.7608  -3.7601  -3.7595  -3.7591  -3.7588  -3.7585  -3.7583  -3.7581  -3.7579  -3.7578  -3.7577  -3.7576  -3.7575  -3.7574  -3.7573  -3.7572  -3.7570  -3.7569  -3.7567  -3.7565  -3.7563  -3.7560  -3.7557  -3.7553  -3.7548  -3.7542  -3.7534  -3.7526  -3.7515  -3.7503  -3.7488  -3.7471  -3.7450  -3.7427  -3.7399  -3.7368  -3.7333  -3.7293  -3.7248  -3.7198  -3.7143  -3.7082  -3.7015  -3.6943  -3.6864  -3.6780  -3.6689  -3.6592  -3.6490
3.200  -5.9600  -5.9232  -5.8802  -5.8306  -5.7741  -5.7105  -5.6397  -5.5617  -5.4768  -5.3856  -5.2887  -5.1871  -5.0815  -4.9728  -4.8620  -4.7503  -4.6393  -4.5313  -4.4287  -4.3339  -4.2491  -4.1755  -4.1137  -4.0631  -4.0227  -3.9910  -3.9665  -3.9477  -3.9334  -3.9226  -3.9143  -3.9081  -3.9034  -3.8998  -3.8971  -3.8950  -3.8935  -3.8923  -3.8914  -3.8908  -3.8903  -3.8899  -3.8897  -3.8895  -3.8894  -3.8893  -3.8892  -3.8892  -3.8891  -3.8890  -3.8890  -3.8889  -3.8888  -3.8887  -3.8885  -3.8883  -3.8880  -3.8877  -3.8872  -3.8867  -3.8861  -3.8853  -3.8843  -3.8831  -3.8817  -3.8801  -3.8781  -3.8758  -3.8731  -3.8701  -3.8666  -3.8628  -3.8585  -3.8539  -3.8489  -3.8435  -3.8377  -3.8316  -3.8251  -3.8182  -3.8109  -3.8031  -3.7949  -3.7862  -3.7770  -3.7673  -3.7571  -3.7463  -3.7349  -3.7230  -3.7106
#
# AESOPUS computation completed
