#  Calculations performed with AESOPUS via the web interface: http://stev.oapd.inaf.it/aesopus
#  Date:  11/07/2019; Central European Time  01:35:19
#  Tables of Rosseland mean opacities
#  Reference paper: Marigo & Aringer (2009, A&A, 508, 1539)
#
#  Definitions:
#  The base-10 logarithm of the Rosseland mean opacity [cm**2/g] as a function
#  of log10(T) for columns of constant log10(R), where:
#  R=density[g/cm**3]/T6**3, T6=1.e-6*T[K]
#
#  Ranges of state parameters
#
#  log10(T) range: nt=  67  values from  4.500  to  3.200
#  log10(T) = [3.200,3.700] in steps of  0.010
#  log10(T) = ]3.700,4.500] in steps of  0.050
#
#  log10(R) range: nre= 91  values from -8.000  to  1.000
#                           in steps of  0.100
#
#
#  Composition parameters:
#
#       X     = hydrogen mass fraction
#               mh =  1 values from 0.700 to 0.700 in steps of 0.200
#       Zref  = 1.500000E-04  reference metallicity
#       Z     = actual metallicity
#
#       Reference solar mixture: Grevesse & Sauval 1998 ---- Zsun =  0.01696  (C/O)sun =  0.48978
#
#     Zi   element   (ni/nz)sun         (Xi/Z)sun         <Ai>
#
#      3     Li     9.323684E-09     3.757845E-09     6.941739E+00
#      4     Be     1.859891E-08     9.731966E-09     9.012183E+00
#      5     B      2.627166E-07     1.649247E-07     1.081222E+01
#      6     C      2.451814E-01     1.709837E-01     1.201114E+01
#      7     N      6.158679E-02     5.008508E-02     1.400676E+01
#      8     O      5.005962E-01     4.650221E-01     1.599938E+01
#      9     F      2.688361E-05     2.965430E-05     1.899841E+01
#     10     Ne     8.904049E-02     1.042809E-01     2.017132E+01
#     11     Na     1.583024E-03     2.113028E-03     2.298977E+01
#     12     Mg     2.814411E-02     3.972350E-02     2.430955E+01
#     13     Al     2.184679E-03     3.422452E-03     2.698154E+01
#     14     Si     2.627166E-02     4.284049E-02     2.808561E+01
#     15     P      2.086832E-04     3.752879E-04     3.097377E+01
#     16     S      1.583024E-02     2.947097E-02     3.206445E+01
#     17     Cl     2.341464E-04     4.820356E-04     3.545753E+01
#     18     Ar     1.859891E-03     4.313819E-03     3.994766E+01
#     19     K      9.758600E-05     2.215449E-04     3.910130E+01
#     20     Ca     1.696632E-03     3.947852E-03     4.007654E+01
#     21     Sc     1.094933E-06     2.857969E-06     4.495592E+01
#     22     Ti     7.753317E-05     2.155336E-04     4.787893E+01
#     23     V      7.404360E-06     2.189994E-05     5.094157E+01
#     24     Cr     3.463279E-04     1.045572E-03     5.199762E+01
#     25     Mn     1.817136E-04     5.796206E-04     5.493805E+01
#     26     Fe     2.341464E-02     7.592291E-02     5.584731E+01
#     27     Co     6.158679E-05     2.107320E-04     5.893319E+01
#     28     Ni     1.316702E-03     4.487945E-03     5.870525E+01
#     29     Cu     1.201123E-05     4.431668E-05     6.354723E+01
#     30     Zn     2.947729E-05     1.119080E-04     6.538687E+01
#     31     Ga     5.616782E-07     2.273583E-06     6.971723E+01
#     32     Ge     1.903214E-06     8.025819E-06     7.263045E+01
#     33     As     1.736151E-07     7.552272E-07     7.492160E+01
#     34     Se     1.903214E-06     8.728593E-06     7.899028E+01
#     35     Br     3.158548E-07     1.465389E-06     7.990652E+01
#     36     Kr     1.511428E-06     7.353928E-06     8.380092E+01
#     37     Rb     2.947729E-07     1.462765E-06     8.546807E+01
#     38     Sr     6.910151E-07     3.515251E-06     8.761646E+01
#     39     Y      1.287027E-07     6.643562E-07     8.890587E+01
#     40     Zr     2.947729E-07     1.561272E-06     9.122375E+01
#     41     Nb     1.947545E-08     1.050549E-07     9.290638E+01
#     42     Mo     6.158679E-08     3.428800E-07     9.588960E+01
#     43     Tc     0.000000E+00     0.000000E+00     9.690639E+01
#     44     Ru     5.122566E-08     3.005927E-07     1.010666E+02
#     45     Rh     9.758600E-09     5.830546E-08     1.029055E+02
#     46     Pd     3.626499E-08     2.240978E-07     1.064307E+02
#     47     Ag     6.448928E-09     4.038921E-08     1.078685E+02
#     48     Cd     4.360011E-08     2.845931E-07     1.124227E+02
#     49     In     3.384446E-08     2.256221E-07     1.148183E+02
#     50     Sn     7.404360E-08     5.104404E-07     1.187338E+02
#     51     Sb     7.404360E-09     5.234457E-08     1.217590E+02
#     52     Te     1.287027E-07     9.537093E-07     1.276278E+02
#     53     I      2.395452E-08     1.765011E-07     1.269045E+02
#     54     Xe     1.094933E-07     8.346586E-07     1.312920E+02
#     55     Cs     9.990507E-09     7.709272E-08     1.329054E+02
#     56     Ba     9.990507E-08     7.965774E-07     1.373275E+02
#     57     La     1.094933E-08     8.830597E-08     1.389055E+02
#     58     Ce     2.814411E-08     2.289570E-07     1.401146E+02
#     59     Pr     3.796536E-09     3.106028E-08     1.409077E+02
#     60     Nd     2.341464E-08     1.960919E-07     1.442411E+02
#     61     Pm     0.000000E+00     0.000000E+00     1.449128E+02
#     62     Sm     7.576830E-09     6.614742E-08     1.503635E+02
#     63     Eu     2.395452E-09     2.113547E-08     1.519642E+02
#     64     Gd     9.758600E-09     8.909990E-08     1.572558E+02
#     65     Tb     5.881492E-10     5.427051E-09     1.589254E+02
#     66     Dy     1.022322E-08     9.645489E-08     1.625001E+02
#     67     Ho     1.347372E-09     1.290242E-08     1.649304E+02
#     68     Er     6.302133E-09     6.120210E-08     1.672614E+02
#     69     Tm     7.404360E-10     7.262536E-09     1.689342E+02
#     70     Yb     8.904049E-09     8.945589E-08     1.730367E+02
#     71     Lu     8.503301E-10     8.638257E-09     1.749667E+02
#     72     Hf     5.616782E-09     5.820847E-08     1.784907E+02
#     73     Ta     5.488928E-10     5.766657E-09     1.809479E+02
#     74     W      9.540860E-09     1.018390E-07     1.838415E+02
#     75     Re     1.410872E-09     1.525392E-08     1.862134E+02
#     76     Os     2.086832E-08     2.304976E-07     1.902374E+02
#     77     Ir     1.658011E-08     1.850377E-07     1.922161E+02
#     78     Pt     4.671835E-08     5.291572E-07     1.950806E+02
#     79     Au     7.576830E-09     8.664890E-08     1.969666E+02
#     80     Hg     9.990507E-09     1.163576E-07     2.005969E+02
#     81     Tl     5.881492E-09     6.979384E-08     2.043838E+02
#     82     Pb     6.599143E-08     7.939617E-07     2.072187E+02
#     83     Bi     3.796536E-09     4.606554E-08     2.089804E+02
#     84     Po     0.000000E+00     0.000000E+00     2.089824E+02
#     85     At     0.000000E+00     0.000000E+00     2.099870E+02
#     86     Rn     0.000000E+00     0.000000E+00     2.220176E+02
#     87     Fr     0.000000E+00     0.000000E+00     2.230198E+02
#     88     Ra     0.000000E+00     0.000000E+00     2.260254E+02
#     89     Ac     0.000000E+00     0.000000E+00     2.270278E+02
#     90     Th     9.105159E-10     1.226676E-08     2.320381E+02
#     91     Pa     0.000000E+00     0.000000E+00     2.310359E+02
#     92     U      2.341464E-10     3.235939E-09     2.380289E+02
#     93     Np     0.000000E+00     0.000000E+00     2.370482E+02
#     94     Pu     0.000000E+00     0.000000E+00     2.440642E+02
#     95     Am     0.000000E+00     0.000000E+00     2.430614E+02
#     96     Cm     0.000000E+00     0.000000E+00     2.470704E+02
#     97     Bk     0.000000E+00     0.000000E+00     2.470703E+02
#     98     Cf     0.000000E+00     0.000000E+00     2.510796E+02
#     99     Es     0.000000E+00     0.000000E+00     2.540881E+02
#
#
#  Abundance ratio variations of metals with respect to 
#  scaled-solar values: [X_i/Fe] (in dex)
#  Fe-group elements: V, Cr, Mn, Fe, Co, Ni, Cu, Zn
#  Reference metallicity is preserved:  Zref = Z
#  No change in any metal abundance
#
#       1    H         -----      34   [Se/Fe]=   0.000      67   [Ho/Fe]=   0.000
#       2    He        -----      35   [Br/Fe]=   0.000      68   [Er/Fe]=   0.000
#       3   [Li/Fe]=   0.000      36   [Kr/Fe]=   0.000      69   [Tm/Fe]=   0.000
#       4   [Be/Fe]=   0.000      37   [Rb/Fe]=   0.000      70   [Yb/Fe]=   0.000
#       5   [B /Fe]=   0.000      38   [Sr/Fe]=   0.000      71   [Lu/Fe]=   0.000
#       6   [C /Fe]=   0.000      39   [Y /Fe]=   0.000      72   [Hf/Fe]=   0.000
#       7   [N /Fe]=   0.000      40   [Zr/Fe]=   0.000      73   [Ta/Fe]=   0.000
#       8   [O /Fe]=   0.000      41   [Nb/Fe]=   0.000      74   [W /Fe]=   0.000
#       9   [F /Fe]=   0.000      42   [Mo/Fe]=   0.000      75   [Re/Fe]=   0.000
#      10   [Ne/Fe]=   0.000      43   [Tc/Fe]=   0.000      76   [Os/Fe]=   0.000
#      11   [Na/Fe]=   0.000      44   [Ru/Fe]=   0.000      77   [Ir/Fe]=   0.000
#      12   [Mg/Fe]=   0.000      45   [Rh/Fe]=   0.000      78   [Pt/Fe]=   0.000
#      13   [Al/Fe]=   0.000      46   [Pd/Fe]=   0.000      79   [Au/Fe]=   0.000
#      14   [Si/Fe]=   0.000      47   [Ag/Fe]=   0.000      80   [Hg/Fe]=   0.000
#      15   [P /Fe]=   0.000      48   [Cd/Fe]=   0.000      81   [Tl/Fe]=   0.000
#      16   [S /Fe]=   0.000      49   [In/Fe]=   0.000      82   [Pb/Fe]=   0.000
#      17   [Cl/Fe]=   0.000      50   [Sn/Fe]=   0.000      83   [Bi/Fe]=   0.000
#      18   [Ar/Fe]=   0.000      51   [Sb/Fe]=   0.000      84   [Po/Fe]=   0.000
#      19   [K /Fe]=   0.000      52   [Te/Fe]=   0.000      85   [At/Fe]=   0.000
#      20   [Ca/Fe]=   0.000      53   [I /Fe]=   0.000      86   [Rn/Fe]=   0.000
#      21   [Sc/Fe]=   0.000      54   [Xe/Fe]=   0.000      87   [Fr/Fe]=   0.000
#      22   [Ti/Fe]=   0.000      55   [Cs/Fe]=   0.000      88   [Ra/Fe]=   0.000
#      23    V         -----      56   [Ba/Fe]=   0.000      89   [Ac/Fe]=   0.000
#      24    Cr        -----      57   [La/Fe]=   0.000      90   [Th/Fe]=   0.000
#      25    Mn        -----      58   [Ce/Fe]=   0.000      91   [Pa/Fe]=   0.000
#      26    Fe        -----      59   [Pr/Fe]=   0.000      92   [U /Fe]=   0.000
#      27    Co        -----      60   [Nd/Fe]=   0.000      93   [Np/Fe]=   0.000
#      28    Ni        -----      61   [Pm/Fe]=   0.000      94   [Pu/Fe]=   0.000
#      29    Cu        -----      62   [Sm/Fe]=   0.000      95   [Am/Fe]=   0.000
#      30    Zn        -----      63   [Eu/Fe]=   0.000      96   [Cm/Fe]=   0.000
#      31   [Ga/Fe]=   0.000      64   [Gd/Fe]=   0.000      97   [Bk/Fe]=   0.000
#      32   [Ge/Fe]=   0.000      65   [Tb/Fe]=   0.000      98   [Cf/Fe]=   0.000
#      33   [As/Fe]=   0.000      66   [Dy/Fe]=   0.000      99   [Es/Fe]=   0.000
#
#
#  Individual variations of metal abundances (number fraction): log10(variation factor) (in dex)
#  Reference metallicity is in general NOT preserved Zref != Z
#
#       1   H    -----      34   Se   0.000      67   Ho   0.000
#       2   He   -----      35   Br   0.000      68   Er   0.000
#       3   Li   0.000      36   Kr   0.000      69   Tm   0.000
#       4   Be   0.000      37   Rb   0.000      70   Yb   0.000
#       5   B    0.000      38   Sr   0.000      71   Lu   0.000
#       6   C    0.000      39   Y    0.000      72   Hf   0.000
#       7   N    0.000      40   Zr   0.000      73   Ta   0.000
#       8   O    0.000      41   Nb   0.000      74   W    0.000
#       9   F    0.000      42   Mo   0.000      75   Re   0.000
#      10   Ne   0.000      43   Tc   0.000      76   Os   0.000
#      11   Na   0.000      44   Ru   0.000      77   Ir   0.000
#      12   Mg   0.000      45   Rh   0.000      78   Pt   0.000
#      13   Al   0.000      46   Pd   0.000      79   Au   0.000
#      14   Si   0.000      47   Ag   0.000      80   Hg   0.000
#      15   P    0.000      48   Cd   0.000      81   Tl   0.000
#      16   S    0.000      49   In   0.000      82   Pb   0.000
#      17   Cl   0.000      50   Sn   0.000      83   Bi   0.000
#      18   Ar   0.000      51   Sb   0.000      84   Po   0.000
#      19   K    0.000      52   Te   0.000      85   At   0.000
#      20   Ca   0.000      53   I    0.000      86   Rn   0.000
#      21   Sc   0.000      54   Xe   0.000      87   Fr   0.000
#      22   Ti   0.000      55   Cs   0.000      88   Ra   0.000
#      23   V    0.000      56   Ba   0.000      89   Ac   0.000
#      24   Cr   0.000      57   La   0.000      90   Th   0.000
#      25   Mn   0.000      58   Ce   0.000      91   Pa   0.000
#      26   Fe   0.000      59   Pr   0.000      92   U    0.000
#      27   Co   0.000      60   Nd   0.000      93   Np   0.000
#      28   Ni   0.000      61   Pm   0.000      94   Pu   0.000
#      29   Cu   0.000      62   Sm   0.000      95   Am   0.000
#      30   Zn   0.000      63   Eu   0.000      96   Cm   0.000
#      31   Ga   0.000      64   Gd   0.000      97   Bk   0.000
#      32   Ge   0.000      65   Tb   0.000      98   Cf   0.000
#      33   As   0.000      66   Dy   0.000      99   Es   0.000
#
#
#              VARIATION GRID OF C/O - C - N ABUNDANCES (in number fraction)
#
#          FCO = log10(variation factor) of C/O ratio
#
#
#           FC = log10(variation factor) of carbon abundance
#
#
#           FN = log10(variation factor) of nitrogen abundance
#
#
#           FO = FC - FCO = log10(variation factor) of oxygen abundance 
#
#
#              TOTAL NUMBER OF TABLES:   mh x mco x mc x mn =     1
#
#
# TABLE      1     X=  0.700000     Y=  0.299850     Zref= 1.500000E-04     Z= 1.500000E-04     FCO=  0.000   FC=  0.000   FN=  0.000   FO=  0.000  C/O=   4.8978E-01
#
#     Zi   element     ni/nz             Xi/Z            ni/nH            Xi/XH             <Ai>
#
#      3     Li     9.323684E-09     3.757845E-09     1.169268E-13     8.052525E-13       6.941739
#      4     Be     1.859891E-08     9.731966E-09     2.332459E-13     2.085421E-12       9.012183
#      5     B      2.627166E-07     1.649247E-07     3.294686E-12     3.534100E-11      10.812224
#      6     C      2.451814E-01     1.709837E-01     3.074780E-06     3.663936E-05      12.011137
#      7     N      6.158679E-02     5.008508E-02     7.723498E-07     1.073252E-05      14.006763
#      8     O      5.005962E-01     4.650221E-01     6.277895E-06     9.964760E-05      15.999375
#      9     F      2.688361E-05     2.965430E-05     3.371429E-10     6.354494E-09      18.998405
#     10     Ne     8.904049E-02     1.042809E-01     1.116642E-06     2.234591E-05      20.171321
#     11     Na     1.583024E-03     2.113028E-03     1.985245E-08     4.527917E-07      22.989771
#     12     Mg     2.814411E-02     3.972350E-02     3.529507E-07     8.512179E-06      24.309551
#     13     Al     2.184679E-03     3.422452E-03     2.739770E-08     7.333825E-07      26.981541
#     14     Si     2.627166E-02     4.284049E-02     3.294686E-07     9.180106E-06      28.085611
#     15     P      2.086832E-04     3.752879E-04     2.617062E-09     8.041884E-08      30.973765
#     16     S      1.583024E-02     2.947097E-02     1.985245E-07     6.315207E-06      32.064451
#     17     Cl     2.341464E-04     4.820356E-04     2.936392E-09     1.032933E-07      35.457532
#     18     Ar     1.859891E-03     4.313819E-03     2.332459E-08     9.243899E-07      39.947662
#     19     K      9.758600E-05     2.215449E-04     1.223810E-09     4.747391E-08      39.101298
#     20     Ca     1.696632E-03     3.947852E-03     2.127718E-08     8.459683E-07      40.076544
#     21     Sc     1.094933E-06     2.857969E-06     1.373138E-11     6.124218E-10      44.955917
#     22     Ti     7.753317E-05     2.155336E-04     9.723308E-10     4.618577E-08      47.878925
#     23     V      7.404360E-06     2.189994E-05     9.285687E-11     4.692844E-09      50.941572
#     24     Cr     3.463279E-04     1.045572E-03     4.343242E-09     2.240512E-07      51.997623
#     25     Mn     1.817136E-04     5.796206E-04     2.278841E-09     1.242044E-07      54.938046
#     26     Fe     2.341464E-02     7.592291E-02     2.936392E-07     1.626920E-05      55.847311
#     27     Co     6.158679E-05     2.107320E-04     7.723498E-10     4.515686E-08      58.933189
#     28     Ni     1.316702E-03     4.487945E-03     1.651255E-08     9.617026E-07      58.705254
#     29     Cu     1.201123E-05     4.431668E-05     1.506309E-10     9.496432E-09      63.547234
#     30     Zn     2.947729E-05     1.119080E-04     3.696699E-10     2.398029E-08      65.386875
#     31     Ga     5.616782E-07     2.273583E-06     7.043914E-12     4.871963E-10      69.717234
#     32     Ge     1.903214E-06     8.025819E-06     2.386789E-11     1.719818E-09      72.630452
#     33     As     1.736151E-07     7.552272E-07     2.177279E-12     1.618344E-10      74.921600
#     34     Se     1.903214E-06     8.728593E-06     2.386789E-11     1.870413E-09      78.990277
#     35     Br     3.158548E-07     1.465389E-06     3.961084E-12     3.140119E-10      79.906523
#     36     Kr     1.511428E-06     7.353928E-06     1.895458E-11     1.575842E-09      83.800924
#     37     Rb     2.947729E-07     1.462765E-06     3.696699E-12     3.134496E-10      85.468072
#     38     Sr     6.910151E-07     3.515251E-06     8.665908E-12     7.532680E-10      87.616461
#     39     Y      1.287027E-07     6.643562E-07     1.614039E-12     1.423620E-10      88.905867
#     40     Zr     2.947729E-07     1.561272E-06     3.696699E-12     3.345582E-10      91.223746
#     41     Nb     1.947545E-08     1.050549E-07     2.442385E-13     2.251175E-11      92.906380
#     42     Mo     6.158679E-08     3.428800E-07     7.723498E-13     7.347428E-11      95.889605
#     43     Tc     0.000000E+00     0.000000E+00     0.000000E+00     0.000000E+00      96.906390
#     44     Ru     5.122566E-08     3.005927E-07     6.424126E-13     6.441272E-11     101.066641
#     45     Rh     9.758600E-09     5.830546E-08     1.223810E-13     1.249403E-11     102.905511
#     46     Pd     3.626499E-08     2.240978E-07     4.547933E-13     4.802096E-11     106.430727
#     47     Ag     6.448928E-09     4.038921E-08     8.087496E-14     8.654830E-12     107.868530
#     48     Cd     4.360011E-08     2.845931E-07     5.467818E-13     6.098425E-11     112.422659
#     49     In     3.384446E-08     2.256221E-07     4.244378E-13     4.834759E-11     114.818279
#     50     Sn     7.404360E-08     5.104404E-07     9.285687E-13     1.093801E-10     118.733825
#     51     Sb     7.404360E-09     5.234457E-08     9.285687E-14     1.121669E-11     121.758986
#     52     Te     1.287027E-07     9.537093E-07     1.614039E-12     2.043663E-10     127.627845
#     53     I      2.395452E-08     1.765011E-07     3.004098E-13     3.782167E-11     126.904474
#     54     Xe     1.094933E-07     8.346586E-07     1.373138E-12     1.788554E-10     131.292004
#     55     Cs     9.990507E-09     7.709272E-08     1.252893E-13     1.651987E-11     132.905440
#     56     Ba     9.990507E-08     7.965774E-07     1.252893E-12     1.706952E-10     137.327464
#     57     La     1.094933E-08     8.830597E-08     1.373138E-13     1.892271E-11     138.905511
#     58     Ce     2.814411E-08     2.289570E-07     3.529507E-13     4.906222E-11     140.114588
#     59     Pr     3.796536E-09     3.106028E-08     4.761174E-14     6.655773E-12     140.907700
#     60     Nd     2.341464E-08     1.960919E-07     2.936392E-13     4.201968E-11     144.241079
#     61     Pm     0.000000E+00     0.000000E+00     0.000000E+00     0.000000E+00     144.912790
#     62     Sm     7.576830E-09     6.614742E-08     9.501979E-14     1.417445E-11     150.363469
#     63     Eu     2.395452E-09     2.113547E-08     3.004098E-14     4.529029E-12     151.964200
#     64     Gd     9.758600E-09     8.909990E-08     1.223810E-13     1.909284E-11     157.255784
#     65     Tb     5.881492E-10     5.427051E-09     7.375884E-15     1.162939E-12     158.925390
#     66     Dy     1.022322E-08     9.645489E-08     1.282077E-13     2.066891E-11     162.500111
#     67     Ho     1.347372E-09     1.290242E-08     1.689717E-14     2.764804E-12     164.930360
#     68     Er     6.302133E-09     6.120210E-08     7.903402E-14     1.311474E-11     167.261394
#     69     Tm     7.404360E-10     7.262536E-09     9.285687E-15     1.556258E-12     168.934240
#     70     Yb     8.904049E-09     8.945589E-08     1.116642E-13     1.916912E-11     173.036747
#     71     Lu     8.503301E-10     8.638257E-09     1.066385E-14     1.851055E-12     174.966749
#     72     Hf     5.616782E-09     5.820847E-08     7.043914E-14     1.247324E-11     178.490703
#     73     Ta     5.488928E-10     5.766657E-09     6.883575E-15     1.235712E-12     180.947907
#     74     W      9.540860E-09     1.018390E-07     1.196504E-13     2.182265E-11     183.841519
#     75     Re     1.410872E-09     1.525392E-08     1.769351E-14     3.268697E-12     186.213359
#     76     Os     2.086832E-08     2.304976E-07     2.617062E-13     4.939234E-11     190.237368
#     77     Ir     1.658011E-08     1.850377E-07     2.079285E-13     3.965095E-11     192.216095
#     78     Pt     4.671835E-08     5.291572E-07     5.858873E-13     1.133908E-10     195.080617
#     79     Au     7.576830E-09     8.664890E-08     9.501979E-14     1.856762E-11     196.966550
#     80     Hg     9.990507E-09     1.163576E-07     1.252893E-13     2.493377E-11     200.596900
#     81     Tl     5.881492E-09     6.979384E-08     7.375884E-14     1.495582E-11     204.383823
#     82     Pb     6.599143E-08     7.939617E-07     8.275878E-13     1.701347E-10     207.218721
#     83     Bi     3.796536E-09     4.606554E-08     4.761174E-14     9.871187E-12     208.980400
#     84     Po     0.000000E+00     0.000000E+00     0.000000E+00     0.000000E+00     208.982440
#     85     At     0.000000E+00     0.000000E+00     0.000000E+00     0.000000E+00     209.987040
#     86     Rn     0.000000E+00     0.000000E+00     0.000000E+00     0.000000E+00     222.017610
#     87     Fr     0.000000E+00     0.000000E+00     0.000000E+00     0.000000E+00     223.019760
#     88     Ra     0.000000E+00     0.000000E+00     0.000000E+00     0.000000E+00     226.025440
#     89     Ac     0.000000E+00     0.000000E+00     0.000000E+00     0.000000E+00     227.027770
#     90     Th     9.105159E-10     1.226676E-08     1.141863E-14     2.628591E-12     232.038080
#     91     Pa     0.000000E+00     0.000000E+00     0.000000E+00     0.000000E+00     231.035900
#     92     U      2.341464E-10     3.235939E-09     2.936392E-15     6.934155E-13     238.028942
#     93     Np     0.000000E+00     0.000000E+00     0.000000E+00     0.000000E+00     237.048190
#     94     Pu     0.000000E+00     0.000000E+00     0.000000E+00     0.000000E+00     244.064240
#     95     Am     0.000000E+00     0.000000E+00     0.000000E+00     0.000000E+00     243.061390
#     96     Cm     0.000000E+00     0.000000E+00     0.000000E+00     0.000000E+00     247.070380
#     97     Bk     0.000000E+00     0.000000E+00     0.000000E+00     0.000000E+00     247.070320
#     98     Cf     0.000000E+00     0.000000E+00     0.000000E+00     0.000000E+00     251.079610
#     99     Es     0.000000E+00     0.000000E+00     0.000000E+00     0.000000E+00     254.088050
#
#
4.500  -0.4802  -0.4795  -0.4787  -0.4777  -0.4766  -0.4753  -0.4737  -0.4717  -0.4693  -0.4664  -0.4631  -0.4591  -0.4544  -0.4488  -0.4422  -0.4344  -0.4251  -0.4142  -0.4016  -0.3873  -0.3713  -0.3537  -0.3347  -0.3145  -0.2934  -0.2714  -0.2482  -0.2238  -0.1980  -0.1705  -0.1408  -0.1086  -0.0733  -0.0347   0.0077   0.0543   0.1054   0.1612   0.2218   0.2873   0.3577   0.4328   0.5125   0.5963   0.6839   0.7749   0.8690   0.9655   1.0643   1.1649   1.2672   1.3708   1.4757   1.5817   1.6886   1.7964   1.9051   2.0145   2.1246   2.2353   2.3463   2.4578   2.5697   2.6822   2.7946   2.9072   3.0202   3.1333   3.2464   3.3593   3.4719   3.5841   3.6955   3.8058   3.9142   4.0204   4.1242   4.2252   4.3224   4.4161   4.5055   4.5906   4.6712   4.7468   4.8171   4.8825   4.9423   4.9972   5.0474   5.0929   5.1340
4.450  -0.4770  -0.4768  -0.4766  -0.4762  -0.4757  -0.4751  -0.4742  -0.4729  -0.4713  -0.4691  -0.4664  -0.4631  -0.4590  -0.4541  -0.4481  -0.4412  -0.4333  -0.4243  -0.4141  -0.4027  -0.3902  -0.3765  -0.3616  -0.3455  -0.3283  -0.3099  -0.2903  -0.2692  -0.2463  -0.2213  -0.1939  -0.1637  -0.1301  -0.0930  -0.0517  -0.0062   0.0439   0.0989   0.1588   0.2237   0.2935   0.3682   0.4475   0.5311   0.6186   0.7095   0.8035   0.9001   0.9990   1.0999   1.2025   1.3063   1.4114   1.5177   1.6248   1.7328   1.8412   1.9502   2.0598   2.1699   2.2803   2.3909   2.5018   2.6129   2.7243   2.8359   2.9471   3.0585   3.1696   3.2805   3.3908   3.4999   3.6081   3.7147   3.8195   3.9221   4.0218   4.1185   4.2117   4.3013   4.3864   4.4672   4.5435   4.6149   4.6816   4.7435   4.8006   4.8532   4.9014   4.9456   4.9863
4.400  -0.4853  -0.4865  -0.4875  -0.4883  -0.4887  -0.4887  -0.4880  -0.4867  -0.4849  -0.4823  -0.4791  -0.4750  -0.4703  -0.4648  -0.4586  -0.4515  -0.4437  -0.4351  -0.4257  -0.4155  -0.4045  -0.3926  -0.3798  -0.3660  -0.3511  -0.3349  -0.3172  -0.2978  -0.2763  -0.2524  -0.2257  -0.1959  -0.1626  -0.1255  -0.0842  -0.0385   0.0118   0.0669   0.1269   0.1919   0.2618   0.3366   0.4158   0.4993   0.5867   0.6774   0.7711   0.8674   0.9658   1.0661   1.1681   1.2714   1.3757   1.4810   1.5871   1.6939   1.8012   1.9087   2.0166   2.1248   2.2331   2.3415   2.4499   2.5582   2.6665   2.7748   2.8831   2.9909   3.0982   3.2053   3.3116   3.4171   3.5212   3.6235   3.7235   3.8208   3.9149   4.0053   4.0916   4.1736   4.2511   4.3239   4.3919   4.4555   4.5144   4.5688   4.6194   4.6661   4.7092   4.7490   4.7860
4.350  -0.5030  -0.5027  -0.5021  -0.5012  -0.5000  -0.4985  -0.4965  -0.4941  -0.4911  -0.4878  -0.4840  -0.4798  -0.4751  -0.4699  -0.4643  -0.4582  -0.4516  -0.4446  -0.4369  -0.4286  -0.4194  -0.4094  -0.3983  -0.3860  -0.3722  -0.3567  -0.3394  -0.3198  -0.2978  -0.2730  -0.2451  -0.2139  -0.1789  -0.1401  -0.0970  -0.0496   0.0023   0.0589   0.1203   0.1863   0.2571   0.3324   0.4121   0.4957   0.5828   0.6731   0.7662   0.8617   0.9591   1.0582   1.1586   1.2602   1.3627   1.4659   1.5694   1.6734   1.7777   1.8822   1.9867   2.0913   2.1961   2.3010   2.4062   2.5115   2.6170   2.7226   2.8282   2.9337   3.0387   3.1428   3.2456   3.3466   3.4453   3.5412   3.6338   3.7225   3.8071   3.8873   3.9629   4.0338   4.1001   4.1617   4.2191   4.2722   4.3214   4.3670   4.4092   4.4485   4.4851   4.5192   4.5513
4.300  -0.5049  -0.5041  -0.5030  -0.5017  -0.4999  -0.4979  -0.4958  -0.4934  -0.4907  -0.4877  -0.4844  -0.4809  -0.4772  -0.4731  -0.4689  -0.4642  -0.4592  -0.4536  -0.4474  -0.4403  -0.4323  -0.4230  -0.4125  -0.4004  -0.3865  -0.3706  -0.3525  -0.3317  -0.3082  -0.2816  -0.2517  -0.2183  -0.1811  -0.1399  -0.0946  -0.0451   0.0087   0.0671   0.1300   0.1974   0.2691   0.3450   0.4248   0.5083   0.5951   0.6847   0.7768   0.8710   0.9670   1.0644   1.1628   1.2621   1.3620   1.4623   1.5631   1.6641   1.7654   1.8672   1.9694   2.0720   2.1750   2.2786   2.3826   2.4869   2.5912   2.6952   2.7985   2.9006   3.0010   3.0992   3.1947   3.2869   3.3754   3.4598   3.5399   3.6154   3.6863   3.7525   3.8141   3.8714   3.9245   3.9737   4.0193   4.0616   4.1009   4.1375   4.1717   4.2038   4.2340   4.2628   4.2901
4.250  -0.5048  -0.5038  -0.5026  -0.5013  -0.4998  -0.4981  -0.4963  -0.4944  -0.4923  -0.4901  -0.4878  -0.4853  -0.4827  -0.4798  -0.4766  -0.4730  -0.4688  -0.4639  -0.4582  -0.4514  -0.4433  -0.4338  -0.4226  -0.4097  -0.3947  -0.3772  -0.3572  -0.3344  -0.3084  -0.2792  -0.2465  -0.2100  -0.1698  -0.1256  -0.0774  -0.0249   0.0318   0.0929   0.1583   0.2279   0.3014   0.3787   0.4593   0.5430   0.6292   0.7179   0.8084   0.9007   0.9944   1.0894   1.1854   1.2825   1.3805   1.4794   1.5793   1.6800   1.7814   1.8833   1.9858   2.0885   2.1913   2.2938   2.3954   2.4961   2.5954   2.6929   2.7881   2.8805   2.9695   3.0549   3.1363   3.2134   3.2860   3.3540   3.4174   3.4764   3.5311   3.5819   3.6289   3.6724   3.7127   3.7502   3.7851   3.8177   3.8483   3.8772   3.9047   3.9309   3.9561   3.9804   4.0042
4.200  -0.5059  -0.5051  -0.5042  -0.5032  -0.5022  -0.5010  -0.4998  -0.4985  -0.4970  -0.4955  -0.4939  -0.4920  -0.4899  -0.4875  -0.4845  -0.4810  -0.4767  -0.4715  -0.4653  -0.4579  -0.4490  -0.4384  -0.4259  -0.4113  -0.3943  -0.3748  -0.3522  -0.3265  -0.2974  -0.2648  -0.2286  -0.1886  -0.1448  -0.0971  -0.0456   0.0098   0.0691   0.1322   0.1989   0.2693   0.3431   0.4201   0.5002   0.5831   0.6687   0.7567   0.8472   0.9398   1.0342   1.1304   1.2280   1.3268   1.4266   1.5271   1.6279   1.7289   1.8299   1.9306   2.0307   2.1294   2.2269   2.3227   2.4161   2.5069   2.5941   2.6780   2.7580   2.8338   2.9052   2.9722   3.0346   3.0926   3.1465   3.1963   3.2424   3.2851   3.3246   3.3612   3.3952   3.4270   3.4568   3.4848   3.5113   3.5365   3.5606   3.5839   3.6065   3.6285   3.6503   3.6719   3.6935
4.150  -0.5045  -0.5039  -0.5032  -0.5025  -0.5018  -0.5011  -0.5003  -0.4993  -0.4983  -0.4970  -0.4955  -0.4937  -0.4915  -0.4888  -0.4855  -0.4816  -0.4768  -0.4708  -0.4636  -0.4550  -0.4448  -0.4327  -0.4184  -0.4018  -0.3826  -0.3605  -0.3355  -0.3074  -0.2758  -0.2407  -0.2021  -0.1597  -0.1135  -0.0635  -0.0096   0.0483   0.1104   0.1765   0.2466   0.3207   0.3985   0.4799   0.5645   0.6521   0.7422   0.8345   0.9286   1.0242   1.1210   1.2188   1.3168   1.4151   1.5134   1.6111   1.7081   1.8039   1.8981   1.9901   2.0799   2.1668   2.2504   2.3300   2.4059   2.4776   2.5450   2.6080   2.6662   2.7205   2.7708   2.8173   2.8603   2.8999   2.9366   2.9706   3.0022   3.0315   3.0590   3.0848   3.1093   3.1325   3.1548   3.1762   3.1971   3.2174   3.2373   3.2572   3.2770   3.2970   3.3171   3.3376   3.3585
4.100  -0.5084  -0.5082  -0.5079  -0.5076  -0.5072  -0.5068  -0.5062  -0.5055  -0.5047  -0.5037  -0.5024  -0.5008  -0.4989  -0.4965  -0.4935  -0.4898  -0.4855  -0.4800  -0.4733  -0.4652  -0.4554  -0.4436  -0.4295  -0.4127  -0.3930  -0.3700  -0.3435  -0.3131  -0.2786  -0.2400  -0.1967  -0.1486  -0.0960  -0.0386   0.0233   0.0897   0.1603   0.2348   0.3130   0.3946   0.4792   0.5662   0.6555   0.7467   0.8392   0.9328   1.0269   1.1211   1.2151   1.3083   1.4006   1.4916   1.5803   1.6669   1.7507   1.8311   1.9081   1.9813   2.0502   2.1147   2.1752   2.2315   2.2837   2.3319   2.3761   2.4171   2.4550   2.4900   2.5225   2.5525   2.5805   2.6059   2.6304   2.6536   2.6757   2.6967   2.7170   2.7366   2.7558   2.7747   2.7934   2.8119   2.8306   2.8493   2.8683   2.8878   2.9077   2.9281   2.9491   2.9710   2.9934
4.050  -0.5094  -0.5097  -0.5101  -0.5105  -0.5110  -0.5115  -0.5121  -0.5126  -0.5131  -0.5135  -0.5136  -0.5134  -0.5128  -0.5114  -0.5093  -0.5061  -0.5016  -0.4955  -0.4880  -0.4781  -0.4657  -0.4507  -0.4327  -0.4114  -0.3866  -0.3580  -0.3253  -0.2886  -0.2474  -0.2019  -0.1520  -0.0973  -0.0380   0.0257   0.0936   0.1654   0.2408   0.3195   0.4009   0.4844   0.5699   0.6567   0.7443   0.8319   0.9194   1.0061   1.0914   1.1749   1.2559   1.3340   1.4089   1.4799   1.5474   1.6108   1.6701   1.7253   1.7766   1.8241   1.8680   1.9081   1.9454   1.9798   2.0115   2.0410   2.0679   2.0934   2.1173   2.1398   2.1611   2.1815   2.2011   2.2193   2.2375   2.2555   2.2731   2.2908   2.3083   2.3259   2.3437   2.3606   2.3788   2.3976   2.4169   2.4367   2.4573   2.4786   2.5006   2.5236   2.5474   2.5721   2.5976
4.000  -0.5320  -0.5342  -0.5362  -0.5380  -0.5395  -0.5406  -0.5414  -0.5417  -0.5414  -0.5407  -0.5393  -0.5371  -0.5342  -0.5304  -0.5255  -0.5193  -0.5118  -0.5026  -0.4915  -0.4781  -0.4628  -0.4442  -0.4224  -0.3975  -0.3688  -0.3364  -0.3001  -0.2596  -0.2149  -0.1660  -0.1130  -0.0557   0.0054   0.0705   0.1391   0.2105   0.2843   0.3598   0.4362   0.5131   0.5894   0.6645   0.7379   0.8090   0.8773   0.9420   1.0035   1.0614   1.1154   1.1657   1.2124   1.2557   1.2954   1.3323   1.3663   1.3974   1.4266   1.4538   1.4792   1.5032   1.5254   1.5467   1.5671   1.5867   1.6055   1.6240   1.6416   1.6593   1.6769   1.6945   1.7120   1.7297   1.7470   1.7651   1.7837   1.8026   1.8219   1.8418   1.8624   1.8836   1.9045   1.9270   1.9503   1.9744   1.9994   2.0254   2.0521   2.0799   2.1067   2.1362   2.1666
3.950  -0.5517  -0.5516  -0.5513  -0.5508  -0.5501  -0.5492  -0.5481  -0.5467  -0.5449  -0.5426  -0.5397  -0.5362  -0.5319  -0.5266  -0.5202  -0.5124  -0.5032  -0.4922  -0.4792  -0.4640  -0.4464  -0.4266  -0.4034  -0.3771  -0.3478  -0.3151  -0.2792  -0.2402  -0.1982  -0.1531  -0.1054  -0.0555  -0.0037   0.0496   0.1035   0.1578   0.2118   0.2647   0.3161   0.3654   0.4124   0.4569   0.4987   0.5379   0.5744   0.6085   0.6403   0.6697   0.6974   0.7233   0.7476   0.7703   0.7922   0.8131   0.8332   0.8526   0.8715   0.8900   0.9084   0.9265   0.9447   0.9629   0.9812   0.9998   1.0183   1.0375   1.0571   1.0771   1.0977   1.1189   1.1400   1.1621   1.1848   1.2082   1.2321   1.2567   1.2814   1.3073   1.3338   1.3612   1.3892   1.4180   1.4474   1.4769   1.5080   1.5399   1.5724   1.6060   1.6404   1.6756   1.7103
3.900  -0.5524  -0.5518  -0.5511  -0.5502  -0.5492  -0.5480  -0.5465  -0.5447  -0.5425  -0.5398  -0.5366  -0.5326  -0.5278  -0.5222  -0.5155  -0.5077  -0.4987  -0.4883  -0.4766  -0.4635  -0.4490  -0.4330  -0.4157  -0.3976  -0.3780  -0.3575  -0.3365  -0.3149  -0.2933  -0.2718  -0.2506  -0.2299  -0.2097  -0.1902  -0.1715  -0.1534  -0.1360  -0.1192  -0.1032  -0.0875  -0.0722  -0.0575  -0.0428  -0.0283  -0.0140   0.0004   0.0148   0.0294   0.0442   0.0594   0.0749   0.0910   0.1076   0.1247   0.1424   0.1609   0.1801   0.1998   0.2204   0.2418   0.2639   0.2863   0.3101   0.3345   0.3595   0.3854   0.4118   0.4389   0.4666   0.4950   0.5239   0.5533   0.5835   0.6142   0.6455   0.6774   0.7092   0.7423   0.7759   0.8101   0.8451   0.8802   0.9163   0.9531   0.9905   1.0287   1.0674   1.1064   1.1464   1.1870   1.2282
3.850  -0.5528  -0.5527  -0.5524  -0.5522  -0.5520  -0.5518  -0.5517  -0.5515  -0.5512  -0.5511  -0.5510  -0.5510  -0.5511  -0.5515  -0.5522  -0.5534  -0.5553  -0.5579  -0.5614  -0.5659  -0.5715  -0.5782  -0.5861  -0.5951  -0.6050  -0.6158  -0.6274  -0.6398  -0.6522  -0.6649  -0.6775  -0.6901  -0.7025  -0.7141  -0.7251  -0.7352  -0.7442  -0.7520  -0.7584  -0.7633  -0.7665  -0.7679  -0.7674  -0.7651  -0.7609  -0.7546  -0.7462  -0.7358  -0.7234  -0.7092  -0.6931  -0.6751  -0.6556  -0.6342  -0.6113  -0.5870  -0.5614  -0.5345  -0.5065  -0.4775  -0.4475  -0.4166  -0.3851  -0.3527  -0.3196  -0.2858  -0.2517  -0.2169  -0.1816  -0.1459  -0.1099  -0.0732  -0.0361   0.0014   0.0388   0.0773   0.1163   0.1558   0.1957   0.2361   0.2770   0.3184   0.3602   0.4023   0.4451   0.4883   0.5320   0.5761   0.6200   0.6650   0.7103
3.800  -0.5756  -0.5807  -0.5869  -0.5943  -0.6031  -0.6134  -0.6254  -0.6391  -0.6546  -0.6720  -0.6912  -0.7122  -0.7350  -0.7594  -0.7854  -0.8127  -0.8413  -0.8711  -0.9019  -0.9335  -0.9658  -0.9988  -1.0322  -1.0659  -1.0998  -1.1337  -1.1675  -1.2011  -1.2343  -1.2670  -1.2989  -1.3299  -1.3597  -1.3883  -1.4152  -1.4404  -1.4636  -1.4845  -1.5029  -1.5187  -1.5313  -1.5408  -1.5470  -1.5496  -1.5489  -1.5449  -1.5371  -1.5259  -1.5116  -1.4941  -1.4738  -1.4508  -1.4255  -1.3980  -1.3686  -1.3374  -1.3048  -1.2710  -1.2360  -1.1999  -1.1630  -1.1252  -1.0869  -1.0482  -1.0088  -0.9689  -0.9287  -0.8879  -0.8467  -0.8053  -0.7634  -0.7211  -0.6786  -0.6357  -0.5925  -0.5490  -0.5051  -0.4609  -0.4163  -0.3713  -0.3260  -0.2804  -0.2345  -0.1882  -0.1417  -0.0949  -0.0478  -0.0004   0.0467   0.0945   0.1425
3.750  -0.7741  -0.8031  -0.8339  -0.8664  -0.9004  -0.9359  -0.9726  -1.0104  -1.0493  -1.0890  -1.1295  -1.1707  -1.2125  -1.2548  -1.2974  -1.3404  -1.3836  -1.4270  -1.4705  -1.5140  -1.5576  -1.6011  -1.6444  -1.6876  -1.7305  -1.7731  -1.8152  -1.8568  -1.8978  -1.9380  -1.9773  -2.0156  -2.0525  -2.0880  -2.1216  -2.1534  -2.1827  -2.2093  -2.2330  -2.2534  -2.2702  -2.2832  -2.2921  -2.2968  -2.2972  -2.2933  -2.2852  -2.2731  -2.2572  -2.2377  -2.2149  -2.1892  -2.1607  -2.1299  -2.0972  -2.0625  -2.0262  -1.9885  -1.9496  -1.9097  -1.8690  -1.8275  -1.7853  -1.7426  -1.6993  -1.6557  -1.6116  -1.5672  -1.5225  -1.4775  -1.4321  -1.3866  -1.3408  -1.2947  -1.2484  -1.2018  -1.1550  -1.1079  -1.0608  -1.0134  -0.9657  -0.9179  -0.8699  -0.8218  -0.7735  -0.7250  -0.6764  -0.6277  -0.5790  -0.5303  -0.4815
3.700  -1.3210  -1.3659  -1.4111  -1.4567  -1.5026  -1.5487  -1.5950  -1.6414  -1.6880  -1.7346  -1.7813  -1.8280  -1.8747  -1.9214  -1.9680  -2.0145  -2.0608  -2.1071  -2.1531  -2.1989  -2.2445  -2.2898  -2.3348  -2.3794  -2.4236  -2.4674  -2.5105  -2.5531  -2.5949  -2.6358  -2.6758  -2.7147  -2.7523  -2.7883  -2.8226  -2.8549  -2.8850  -2.9125  -2.9370  -2.9584  -2.9763  -2.9905  -3.0007  -3.0068  -3.0087  -3.0064  -3.0000  -2.9896  -2.9753  -2.9573  -2.9360  -2.9115  -2.8844  -2.8545  -2.8224  -2.7882  -2.7523  -2.7148  -2.6759  -2.6358  -2.5947  -2.5528  -2.5100  -2.4666  -2.4227  -2.3781  -2.3331  -2.2877  -2.2419  -2.1958  -2.1492  -2.1026  -2.0555  -2.0081  -1.9605  -1.9126  -1.8644  -1.8160  -1.7674  -1.7185  -1.6694  -1.6201  -1.5706  -1.5209  -1.4710  -1.4209  -1.3707  -1.3203  -1.2697  -1.2191  -1.1683
3.690  -1.4600  -1.5060  -1.5523  -1.5988  -1.6455  -1.6923  -1.7392  -1.7862  -1.8331  -1.8801  -1.9271  -1.9740  -2.0208  -2.0676  -2.1142  -2.1607  -2.2070  -2.2531  -2.2990  -2.3447  -2.3901  -2.4352  -2.4799  -2.5242  -2.5680  -2.6114  -2.6542  -2.6963  -2.7377  -2.7782  -2.8177  -2.8561  -2.8933  -2.9289  -2.9628  -2.9948  -3.0245  -3.0518  -3.0762  -3.0976  -3.1156  -3.1300  -3.1405  -3.1471  -3.1496  -3.1480  -3.1424  -3.1328  -3.1194  -3.1024  -3.0820  -3.0585  -3.0321  -3.0030  -2.9716  -2.9381  -2.9027  -2.8657  -2.8273  -2.7877  -2.7470  -2.7054  -2.6629  -2.6198  -2.5760  -2.5317  -2.4869  -2.4416  -2.3959  -2.3499  -2.3035  -2.2567  -2.2096  -2.1622  -2.1145  -2.0666  -2.0183  -1.9698  -1.9209  -1.8718  -1.8224  -1.7727  -1.7228  -1.6726  -1.6222  -1.5715  -1.5206  -1.4695  -1.4182  -1.3666  -1.3149
3.680  -1.6054  -1.6522  -1.6992  -1.7462  -1.7934  -1.8406  -1.8878  -1.9350  -1.9821  -2.0292  -2.0762  -2.1232  -2.1699  -2.2166  -2.2630  -2.3093  -2.3553  -2.4011  -2.4467  -2.4920  -2.5369  -2.5816  -2.6258  -2.6696  -2.7129  -2.7557  -2.7979  -2.8394  -2.8802  -2.9201  -2.9590  -2.9969  -3.0334  -3.0685  -3.1019  -3.1335  -3.1629  -3.1899  -3.2142  -3.2355  -3.2536  -3.2683  -3.2793  -3.2864  -3.2896  -3.2889  -3.2842  -3.2757  -3.2633  -3.2474  -3.2281  -3.2056  -3.1801  -3.1520  -3.1214  -3.0887  -3.0540  -3.0176  -2.9797  -2.9405  -2.9003  -2.8590  -2.8169  -2.7740  -2.7305  -2.6864  -2.6417  -2.5966  -2.5510  -2.5051  -2.4587  -2.4119  -2.3648  -2.3174  -2.2696  -2.2214  -2.1729  -2.1241  -2.0750  -2.0255  -1.9756  -1.9254  -1.8749  -1.8240  -1.7729  -1.7213  -1.6695  -1.6173  -1.5648  -1.5120  -1.4588
3.670  -1.7564  -1.8036  -1.8510  -1.8984  -1.9457  -1.9931  -2.0404  -2.0876  -2.1347  -2.1818  -2.2286  -2.2754  -2.3219  -2.3683  -2.4144  -2.4603  -2.5060  -2.5514  -2.5964  -2.6412  -2.6856  -2.7296  -2.7731  -2.8163  -2.8589  -2.9010  -2.9425  -2.9833  -3.0233  -3.0625  -3.1007  -3.1379  -3.1738  -3.2082  -3.2411  -3.2722  -3.3012  -3.3279  -3.3521  -3.3734  -3.3917  -3.4067  -3.4181  -3.4260  -3.4300  -3.4303  -3.4267  -3.4194  -3.4083  -3.3936  -3.3756  -3.3543  -3.3300  -3.3029  -3.2732  -3.2413  -3.2074  -3.1717  -3.1344  -3.0957  -3.0558  -3.0149  -2.9731  -2.9305  -2.8872  -2.8433  -2.7987  -2.7537  -2.7082  -2.6622  -2.6158  -2.5689  -2.5217  -2.4740  -2.4260  -2.3775  -2.3286  -2.2794  -2.2297  -2.1795  -2.1290  -2.0780  -2.0266  -1.9747  -1.9224  -1.8696  -1.8164  -1.7627  -1.7085  -1.6538  -1.5986
3.660  -1.9123  -1.9598  -2.0072  -2.0547  -2.1021  -2.1494  -2.1965  -2.2436  -2.2905  -2.3373  -2.3839  -2.4303  -2.4765  -2.5224  -2.5681  -2.6135  -2.6586  -2.7034  -2.7479  -2.7920  -2.8357  -2.8790  -2.9218  -2.9642  -3.0060  -3.0473  -3.0879  -3.1279  -3.1671  -3.2055  -3.2429  -3.2792  -3.3144  -3.3482  -3.3804  -3.4110  -3.4396  -3.4660  -3.4900  -3.5114  -3.5299  -3.5453  -3.5574  -3.5661  -3.5711  -3.5726  -3.5703  -3.5643  -3.5547  -3.5415  -3.5249  -3.5049  -3.4819  -3.4561  -3.4275  -3.3966  -3.3635  -3.3285  -3.2919  -3.2537  -3.2143  -3.1738  -3.1323  -3.0899  -3.0467  -3.0029  -2.9584  -2.9134  -2.8678  -2.8216  -2.7750  -2.7279  -2.6803  -2.6323  -2.5837  -2.5347  -2.4851  -2.4351  -2.3845  -2.3333  -2.2817  -2.2294  -2.1766  -2.1232  -2.0691  -2.0145  -1.9593  -1.9034  -1.8468  -1.7896  -1.7317
3.650  -2.0724  -2.1199  -2.1673  -2.2146  -2.2618  -2.3089  -2.3558  -2.4025  -2.4491  -2.4955  -2.5416  -2.5875  -2.6332  -2.6785  -2.7236  -2.7684  -2.8129  -2.8570  -2.9007  -2.9440  -2.9869  -3.0294  -3.0714  -3.1129  -3.1539  -3.1942  -3.2340  -3.2730  -3.3113  -3.3488  -3.3853  -3.4209  -3.4552  -3.4883  -3.5199  -3.5499  -3.5781  -3.6043  -3.6282  -3.6497  -3.6684  -3.6843  -3.6972  -3.7067  -3.7129  -3.7156  -3.7148  -3.7103  -3.7023  -3.6906  -3.6756  -3.6573  -3.6358  -3.6113  -3.5840  -3.5542  -3.5222  -3.4880  -3.4521  -3.4145  -3.3756  -3.3354  -3.2942  -3.2520  -3.2089  -3.1651  -3.1205  -3.0753  -3.0295  -2.9830  -2.9360  -2.8884  -2.8402  -2.7914  -2.7420  -2.6920  -2.6413  -2.5900  -2.5381  -2.4854  -2.4319  -2.3778  -2.3229  -2.2672  -2.2107  -2.1534  -2.0953  -2.0364  -1.9767  -1.9163  -1.8550
3.640  -2.2369  -2.2842  -2.3314  -2.3784  -2.4253  -2.4720  -2.5185  -2.5648  -2.6109  -2.6567  -2.7023  -2.7475  -2.7925  -2.8372  -2.8816  -2.9256  -2.9693  -3.0126  -3.0555  -3.0980  -3.1400  -3.1816  -3.2227  -3.2632  -3.3032  -3.3426  -3.3814  -3.4194  -3.4567  -3.4932  -3.5288  -3.5634  -3.5970  -3.6293  -3.6602  -3.6896  -3.7174  -3.7433  -3.7671  -3.7887  -3.8078  -3.8243  -3.8379  -3.8485  -3.8559  -3.8601  -3.8608  -3.8581  -3.8519  -3.8421  -3.8290  -3.8124  -3.7926  -3.7696  -3.7438  -3.7153  -3.6844  -3.6513  -3.6162  -3.5794  -3.5411  -3.5014  -3.4604  -3.4184  -3.3754  -3.3316  -3.2868  -3.2414  -3.1951  -3.1482  -3.1005  -3.0521  -3.0029  -2.9530  -2.9023  -2.8508  -2.7985  -2.7453  -2.6912  -2.6362  -2.5802  -2.5233  -2.4654  -2.4065  -2.3466  -2.2859  -2.2242  -2.1616  -2.0983  -2.0343  -1.9696
3.630  -2.4046  -2.4516  -2.4984  -2.5450  -2.5914  -2.6376  -2.6835  -2.7292  -2.7746  -2.8198  -2.8646  -2.9092  -2.9534  -2.9972  -3.0407  -3.0839  -3.1266  -3.1690  -3.2109  -3.2524  -3.2935  -3.3340  -3.3741  -3.4136  -3.4526  -3.4909  -3.5287  -3.5657  -3.6020  -3.6375  -3.6722  -3.7059  -3.7386  -3.7701  -3.8003  -3.8292  -3.8566  -3.8822  -3.9060  -3.9277  -3.9472  -3.9642  -3.9787  -3.9903  -3.9991  -4.0047  -4.0071  -4.0061  -4.0017  -3.9939  -3.9826  -3.9679  -3.9498  -3.9286  -3.9044  -3.8774  -3.8478  -3.8158  -3.7817  -3.7456  -3.7079  -3.6686  -3.6279  -3.5860  -3.5430  -3.4989  -3.4537  -3.4077  -3.3607  -3.3127  -3.2639  -3.2141  -3.1633  -3.1116  -3.0588  -3.0050  -2.9501  -2.8941  -2.8368  -2.7784  -2.7189  -2.6581  -2.5962  -2.5332  -2.4692  -2.4043  -2.3386  -2.2723  -2.2054  -2.1381  -2.0705
3.620  -2.5753  -2.6218  -2.6681  -2.7141  -2.7599  -2.8054  -2.8506  -2.8956  -2.9402  -2.9845  -3.0285  -3.0722  -3.1155  -3.1584  -3.2009  -3.2430  -3.2848  -3.3261  -3.3669  -3.4073  -3.4473  -3.4867  -3.5256  -3.5640  -3.6019  -3.6391  -3.6757  -3.7117  -3.7469  -3.7814  -3.8151  -3.8479  -3.8797  -3.9104  -3.9400  -3.9683  -3.9952  -4.0206  -4.0443  -4.0662  -4.0860  -4.1036  -4.1189  -4.1316  -4.1415  -4.1486  -4.1525  -4.1533  -4.1507  -4.1447  -4.1353  -4.1225  -4.1063  -4.0869  -4.0643  -4.0388  -4.0106  -3.9799  -3.9468  -3.9116  -3.8745  -3.8356  -3.7951  -3.7532  -3.7098  -3.6652  -3.6193  -3.5722  -3.5239  -3.4744  -3.4237  -3.3718  -3.3186  -3.2641  -3.2082  -3.1510  -3.0923  -3.0323  -2.9708  -2.9080  -2.8438  -2.7784  -2.7119  -2.6445  -2.5763  -2.5074  -2.4382  -2.3687  -2.2992  -2.2299  -2.1610
3.610  -2.7486  -2.7945  -2.8400  -2.8853  -2.9303  -2.9750  -3.0194  -3.0635  -3.1072  -3.1506  -3.1936  -3.2362  -3.2785  -3.3203  -3.3618  -3.4028  -3.4434  -3.4835  -3.5232  -3.5624  -3.6011  -3.6394  -3.6771  -3.7143  -3.7509  -3.7869  -3.8224  -3.8572  -3.8913  -3.9247  -3.9573  -3.9891  -4.0200  -4.0500  -4.0789  -4.1066  -4.1331  -4.1582  -4.1818  -4.2037  -4.2238  -4.2419  -4.2578  -4.2714  -4.2824  -4.2906  -4.2959  -4.2982  -4.2972  -4.2929  -4.2853  -4.2742  -4.2598  -4.2421  -4.2212  -4.1972  -4.1705  -4.1410  -4.1090  -4.0746  -4.0381  -3.9996  -3.9592  -3.9170  -3.8730  -3.8275  -3.7803  -3.7316  -3.6812  -3.6293  -3.5758  -3.5207  -3.4638  -3.4054  -3.3452  -3.2833  -3.2198  -3.1548  -3.0882  -3.0204  -2.9514  -2.8815  -2.8108  -2.7397  -2.6682  -2.5967  -2.5253  -2.4544  -2.3840  -2.3143  -2.2455
3.600  -2.9241  -2.9691  -3.0138  -3.0583  -3.1024  -3.1461  -3.1895  -3.2326  -3.2752  -3.3175  -3.3594  -3.4009  -3.4420  -3.4827  -3.5229  -3.5627  -3.6021  -3.6410  -3.6794  -3.7173  -3.7548  -3.7917  -3.8282  -3.8641  -3.8994  -3.9342  -3.9684  -4.0020  -4.0350  -4.0672  -4.0988  -4.1296  -4.1595  -4.1886  -4.2167  -4.2438  -4.2698  -4.2945  -4.3178  -4.3396  -4.3598  -4.3781  -4.3944  -4.4085  -4.4202  -4.4293  -4.4356  -4.4390  -4.4392  -4.4362  -4.4299  -4.4203  -4.4074  -4.3912  -4.3718  -4.3493  -4.3239  -4.2956  -4.2646  -4.2310  -4.1950  -4.1566  -4.1159  -4.0731  -4.0281  -3.9810  -3.9318  -3.8805  -3.8272  -3.7717  -3.7142  -3.6546  -3.5931  -3.5295  -3.4641  -3.3970  -3.3283  -3.2582  -3.1871  -3.1150  -3.0424  -2.9693  -2.8961  -2.8230  -2.7501  -2.6778  -2.6062  -2.5354  -2.4657  -2.3972  -2.3299
3.590  -3.1010  -3.1451  -3.1889  -3.2323  -3.2753  -3.3180  -3.3603  -3.4022  -3.4437  -3.4848  -3.5254  -3.5657  -3.6055  -3.6449  -3.6838  -3.7223  -3.7603  -3.7978  -3.8349  -3.8715  -3.9076  -3.9432  -3.9782  -4.0128  -4.0468  -4.0803  -4.1132  -4.1455  -4.1772  -4.2083  -4.2386  -4.2683  -4.2972  -4.3254  -4.3526  -4.3788  -4.4041  -4.4281  -4.4509  -4.4723  -4.4922  -4.5103  -4.5265  -4.5405  -4.5523  -4.5616  -4.5683  -4.5721  -4.5729  -4.5706  -4.5652  -4.5565  -4.5447  -4.5296  -4.5114  -4.4901  -4.4657  -4.4384  -4.4081  -4.3750  -4.3391  -4.3004  -4.2590  -4.2149  -4.1680  -4.1185  -4.0663  -4.0114  -3.9540  -3.8940  -3.8316  -3.7669  -3.7001  -3.6314  -3.5611  -3.4894  -3.4167  -3.3432  -3.2691  -3.1948  -3.1205  -3.0463  -2.9725  -2.8993  -2.8268  -2.7552  -2.6846  -2.6153  -2.5472  -2.4806  -2.4153
3.580  -3.2790  -3.3220  -3.3646  -3.4069  -3.4487  -3.4902  -3.5312  -3.5718  -3.6120  -3.6518  -3.6911  -3.7300  -3.7685  -3.8065  -3.8440  -3.8810  -3.9176  -3.9538  -3.9894  -4.0246  -4.0592  -4.0934  -4.1271  -4.1602  -4.1928  -4.2249  -4.2565  -4.2875  -4.3179  -4.3476  -4.3768  -4.4053  -4.4330  -4.4600  -4.4861  -4.5114  -4.5356  -4.5587  -4.5806  -4.6011  -4.6201  -4.6374  -4.6529  -4.6663  -4.6775  -4.6863  -4.6926  -4.6961  -4.6968  -4.6945  -4.6892  -4.6808  -4.6694  -4.6548  -4.6371  -4.6163  -4.5923  -4.5652  -4.5350  -4.5016  -4.4650  -4.4252  -4.3821  -4.3358  -4.2861  -4.2332  -4.1772  -4.1181  -4.0561  -3.9915  -3.9245  -3.8555  -3.7847  -3.7126  -3.6394  -3.5654  -3.4910  -3.4164  -3.3418  -3.2673  -3.1932  -3.1197  -3.0469  -2.9749  -2.9038  -2.8339  -2.7652  -2.6977  -2.6316  -2.5669  -2.5035
3.570  -3.4575  -3.4992  -3.5406  -3.5815  -3.6220  -3.6621  -3.7018  -3.7410  -3.7798  -3.8182  -3.8561  -3.8935  -3.9305  -3.9670  -4.0030  -4.0386  -4.0737  -4.1083  -4.1425  -4.1762  -4.2093  -4.2420  -4.2742  -4.3059  -4.3371  -4.3678  -4.3979  -4.4275  -4.4565  -4.4849  -4.5127  -4.5398  -4.5662  -4.5918  -4.6166  -4.6404  -4.6633  -4.6850  -4.7055  -4.7246  -4.7423  -4.7582  -4.7723  -4.7844  -4.7943  -4.8019  -4.8070  -4.8094  -4.8091  -4.8060  -4.7999  -4.7909  -4.7789  -4.7638  -4.7456  -4.7243  -4.6997  -4.6718  -4.6405  -4.6057  -4.5674  -4.5254  -4.4797  -4.4304  -4.3774  -4.3211  -4.2614  -4.1988  -4.1336  -4.0660  -3.9966  -3.9256  -3.8535  -3.7806  -3.7071  -3.6333  -3.5594  -3.4856  -3.4120  -3.3389  -3.2663  -3.1944  -3.1234  -3.0532  -2.9840  -2.9159  -2.8489  -2.7831  -2.7185  -2.6551  -2.5930
3.560  -3.6357  -3.6761  -3.7160  -3.7555  -3.7946  -3.8333  -3.8715  -3.9092  -3.9465  -3.9833  -4.0197  -4.0556  -4.0910  -4.1260  -4.1605  -4.1945  -4.2281  -4.2611  -4.2937  -4.3259  -4.3575  -4.3887  -4.4193  -4.4495  -4.4791  -4.5083  -4.5369  -4.5649  -4.5924  -4.6192  -4.6454  -4.6709  -4.6956  -4.7196  -4.7427  -4.7648  -4.7858  -4.8057  -4.8243  -4.8415  -4.8572  -4.8712  -4.8833  -4.8933  -4.9012  -4.9068  -4.9099  -4.9104  -4.9083  -4.9033  -4.8955  -4.8848  -4.8711  -4.8543  -4.8344  -4.8112  -4.7847  -4.7547  -4.7213  -4.6841  -4.6433  -4.5988  -4.5505  -4.4987  -4.4435  -4.3850  -4.3238  -4.2600  -4.1940  -4.1263  -4.0571  -3.9869  -3.9158  -3.8442  -3.7722  -3.7001  -3.6281  -3.5561  -3.4846  -3.4134  -3.3428  -3.2728  -3.2035  -3.1350  -3.0674  -3.0005  -2.9345  -2.8695  -2.8054  -2.7424  -2.6805
3.550  -3.8131  -3.8520  -3.8904  -3.9284  -3.9659  -4.0030  -4.0396  -4.0758  -4.1115  -4.1467  -4.1815  -4.2158  -4.2496  -4.2829  -4.3158  -4.3482  -4.3802  -4.4117  -4.4427  -4.4732  -4.5032  -4.5327  -4.5618  -4.5903  -4.6183  -4.6457  -4.6726  -4.6989  -4.7246  -4.7496  -4.7739  -4.7974  -4.8201  -4.8420  -4.8630  -4.8829  -4.9017  -4.9193  -4.9355  -4.9502  -4.9633  -4.9746  -4.9841  -4.9914  -4.9966  -4.9994  -4.9997  -4.9974  -4.9924  -4.9846  -4.9740  -4.9603  -4.9437  -4.9240  -4.9012  -4.8753  -4.8461  -4.8136  -4.7778  -4.7386  -4.6959  -4.6499  -4.6007  -4.5483  -4.4929  -4.4350  -4.3746  -4.3122  -4.2479  -4.1822  -4.1153  -4.0473  -3.9787  -3.9095  -3.8399  -3.7702  -3.7004  -3.6307  -3.5611  -3.4919  -3.4230  -3.3544  -3.2862  -3.2185  -3.1512  -3.0844  -3.0182  -2.9527  -2.8881  -2.8246  -2.7624
3.540  -3.9891  -4.0263  -4.0631  -4.0995  -4.1354  -4.1708  -4.2058  -4.2403  -4.2743  -4.3078  -4.3409  -4.3736  -4.4057  -4.4374  -4.4686  -4.4993  -4.5296  -4.5594  -4.5886  -4.6174  -4.6457  -4.6735  -4.7007  -4.7274  -4.7535  -4.7790  -4.8039  -4.8281  -4.8516  -4.8744  -4.8965  -4.9177  -4.9380  -4.9574  -4.9758  -4.9930  -5.0090  -5.0237  -5.0369  -5.0485  -5.0584  -5.0665  -5.0725  -5.0764  -5.0781  -5.0772  -5.0739  -5.0678  -5.0590  -5.0475  -5.0331  -5.0159  -4.9959  -4.9730  -4.9474  -4.9189  -4.8877  -4.8536  -4.8167  -4.7769  -4.7343  -4.6888  -4.6407  -4.5899  -4.5366  -4.4811  -4.4234  -4.3639  -4.3027  -4.2401  -4.1762  -4.1112  -4.0455  -3.9790  -3.9120  -3.8446  -3.7769  -3.7090  -3.6409  -3.5727  -3.5044  -3.4359  -3.3674  -3.2989  -3.2305  -3.1624  -3.0949  -3.0282  -2.9627  -2.8987  -2.8366
3.530  -4.1629  -4.1985  -4.2336  -4.2682  -4.3024  -4.3361  -4.3693  -4.4021  -4.4343  -4.4662  -4.4975  -4.5284  -4.5588  -4.5887  -4.6181  -4.6471  -4.6755  -4.7034  -4.7308  -4.7577  -4.7840  -4.8097  -4.8348  -4.8593  -4.8832  -4.9064  -4.9289  -4.9507  -4.9717  -4.9919  -5.0113  -5.0297  -5.0471  -5.0635  -5.0787  -5.0926  -5.1052  -5.1164  -5.1259  -5.1338  -5.1398  -5.1437  -5.1456  -5.1452  -5.1425  -5.1373  -5.1297  -5.1195  -5.1067  -5.0914  -5.0737  -5.0535  -5.0309  -5.0060  -4.9788  -4.9494  -4.9178  -4.8839  -4.8478  -4.8093  -4.7684  -4.7252  -4.6797  -4.6319  -4.5819  -4.5298  -4.4756  -4.4196  -4.3618  -4.3025  -4.2418  -4.1798  -4.1168  -4.0527  -3.9878  -3.9221  -3.8555  -3.7882  -3.7202  -3.6514  -3.5819  -3.5118  -3.4413  -3.3706  -3.3000  -3.2300  -3.1610  -3.0933  -3.0275  -2.9639  -2.9027
3.520  -4.3340  -4.3677  -4.4011  -4.4339  -4.4663  -4.4982  -4.5296  -4.5605  -4.5910  -4.6210  -4.6505  -4.6795  -4.7080  -4.7360  -4.7634  -4.7904  -4.8167  -4.8425  -4.8677  -4.8923  -4.9163  -4.9396  -4.9623  -4.9843  -5.0055  -5.0260  -5.0457  -5.0646  -5.0826  -5.0997  -5.1157  -5.1307  -5.1446  -5.1573  -5.1686  -5.1786  -5.1870  -5.1939  -5.1990  -5.2022  -5.2036  -5.2029  -5.2001  -5.1952  -5.1882  -5.1789  -5.1676  -5.1541  -5.1385  -5.1209  -5.1014  -5.0799  -5.0566  -5.0315  -5.0046  -4.9760  -4.9456  -4.9134  -4.8793  -4.8433  -4.8052  -4.7651  -4.7229  -4.6785  -4.6320  -4.5834  -4.5328  -4.4802  -4.4258  -4.3695  -4.3116  -4.2520  -4.1909  -4.1283  -4.0642  -3.9985  -3.9313  -3.8627  -3.7926  -3.7212  -3.6488  -3.5757  -3.5022  -3.4289  -3.3562  -3.2848  -3.2151  -3.1478  -3.0831  -3.0213  -2.9627
3.510  -4.5016  -4.5335  -4.5650  -4.5959  -4.6264  -4.6564  -4.6859  -4.7149  -4.7434  -4.7714  -4.7988  -4.8257  -4.8520  -4.8778  -4.9030  -4.9275  -4.9515  -4.9748  -4.9974  -5.0193  -5.0406  -5.0611  -5.0808  -5.0997  -5.1179  -5.1351  -5.1514  -5.1667  -5.1810  -5.1942  -5.2063  -5.2171  -5.2267  -5.2348  -5.2416  -5.2468  -5.2504  -5.2524  -5.2527  -5.2513  -5.2481  -5.2432  -5.2367  -5.2284  -5.2184  -5.2068  -5.1935  -5.1786  -5.1622  -5.1442  -5.1247  -5.1037  -5.0813  -5.0575  -5.0322  -5.0054  -4.9772  -4.9474  -4.9160  -4.8828  -4.8477  -4.8107  -4.7717  -4.7307  -4.6874  -4.6421  -4.5946  -4.5449  -4.4931  -4.4390  -4.3828  -4.3243  -4.2636  -4.2005  -4.1350  -4.0672  -3.9971  -3.9250  -3.8512  -3.7760  -3.6999  -3.6235  -3.5475  -3.4724  -3.3989  -3.3277  -3.2593  -3.1940  -3.1322  -3.0738  -3.0188
3.500  -4.6651  -4.6950  -4.7244  -4.7534  -4.7818  -4.8097  -4.8370  -4.8638  -4.8900  -4.9157  -4.9407  -4.9651  -4.9889  -5.0121  -5.0345  -5.0563  -5.0773  -5.0977  -5.1172  -5.1360  -5.1540  -5.1711  -5.1872  -5.2024  -5.2167  -5.2299  -5.2420  -5.2530  -5.2628  -5.2714  -5.2787  -5.2847  -5.2893  -5.2926  -5.2945  -5.2950  -5.2942  -5.2921  -5.2886  -5.2839  -5.2779  -5.2706  -5.2622  -5.2525  -5.2417  -5.2296  -5.2164  -5.2019  -5.1863  -5.1694  -5.1513  -5.1319  -5.1113  -5.0895  -5.0663  -5.0418  -5.0159  -4.9885  -4.9596  -4.9290  -4.8966  -4.8623  -4.8260  -4.7877  -4.7471  -4.7042  -4.6588  -4.6110  -4.5604  -4.5069  -4.4504  -4.3908  -4.3279  -4.2618  -4.1926  -4.1206  -4.0460  -3.9695  -3.8914  -3.8125  -3.7335  -3.6550  -3.5780  -3.5031  -3.4311  -3.3623  -3.2971  -3.2358  -3.1782  -3.1241  -3.0732
3.490  -4.8232  -4.8509  -4.8781  -4.9047  -4.9308  -4.9562  -4.9810  -5.0052  -5.0287  -5.0516  -5.0737  -5.0952  -5.1159  -5.1359  -5.1551  -5.1735  -5.1910  -5.2077  -5.2235  -5.2382  -5.2520  -5.2648  -5.2765  -5.2871  -5.2965  -5.3048  -5.3119  -5.3177  -5.3224  -5.3259  -5.3282  -5.3294  -5.3295  -5.3286  -5.3267  -5.3238  -5.3201  -5.3155  -5.3100  -5.3038  -5.2967  -5.2888  -5.2802  -5.2707  -5.2604  -5.2492  -5.2372  -5.2242  -5.2102  -5.1951  -5.1790  -5.1617  -5.1433  -5.1236  -5.1026  -5.0803  -5.0566  -5.0315  -5.0048  -4.9764  -4.9462  -4.9141  -4.8799  -4.8434  -4.8045  -4.7628  -4.7182  -4.6703  -4.6188  -4.5634  -4.5040  -4.4405  -4.3731  -4.3018  -4.2273  -4.1500  -4.0705  -3.9895  -3.9079  -3.8265  -3.7462  -3.6679  -3.5923  -3.5202  -3.4519  -3.3877  -3.3276  -3.2714  -3.2189  -3.1696  -3.1232
3.480  -4.9742  -4.9993  -5.0238  -5.0476  -5.0708  -5.0933  -5.1150  -5.1361  -5.1563  -5.1758  -5.1945  -5.2124  -5.2294  -5.2454  -5.2606  -5.2747  -5.2878  -5.2999  -5.3109  -5.3208  -5.3295  -5.3371  -5.3436  -5.3490  -5.3532  -5.3564  -5.3585  -5.3597  -5.3600  -5.3594  -5.3581  -5.3561  -5.3535  -5.3503  -5.3465  -5.3423  -5.3376  -5.3324  -5.3267  -5.3206  -5.3140  -5.3069  -5.2993  -5.2911  -5.2823  -5.2729  -5.2626  -5.2516  -5.2396  -5.2267  -5.2126  -5.1974  -5.1810  -5.1632  -5.1441  -5.1236  -5.1016  -5.0781  -5.0530  -5.0260  -4.9972  -4.9662  -4.9328  -4.8968  -4.8576  -4.8151  -4.7686  -4.7179  -4.6625  -4.6023  -4.5373  -4.4678  -4.3942  -4.3170  -4.2371  -4.1550  -4.0716  -3.9880  -3.9051  -3.8240  -3.7455  -3.6705  -3.5994  -3.5325  -3.4700  -3.4117  -3.3574  -3.3067  -3.2592  -3.2146  -3.1724
3.470  -5.1151  -5.1370  -5.1583  -5.1787  -5.1984  -5.2173  -5.2353  -5.2525  -5.2687  -5.2841  -5.2984  -5.3117  -5.3240  -5.3351  -5.3452  -5.3542  -5.3620  -5.3688  -5.3744  -5.3790  -5.3826  -5.3851  -5.3868  -5.3877  -5.3877  -5.3871  -5.3859  -5.3842  -5.3820  -5.3795  -5.3765  -5.3733  -5.3698  -5.3661  -5.3622  -5.3582  -5.3539  -5.3494  -5.3447  -5.3398  -5.3345  -5.3290  -5.3231  -5.3167  -5.3099  -5.3024  -5.2941  -5.2851  -5.2750  -5.2639  -5.2517  -5.2381  -5.2233  -5.2070  -5.1892  -5.1699  -5.1490  -5.1263  -5.1017  -5.0751  -5.0462  -5.0146  -4.9800  -4.9420  -4.9001  -4.8537  -4.8024  -4.7458  -4.6838  -4.6167  -4.5447  -4.4686  -4.3890  -4.3068  -4.2228  -4.1380  -4.0534  -3.9703  -3.8896  -3.8123  -3.7388  -3.6696  -3.6049  -3.5446  -3.4884  -3.4362  -3.3876  -3.3422  -3.2996  -3.2593  -3.2211
3.460  -5.2420  -5.2600  -5.2773  -5.2936  -5.3089  -5.3233  -5.3366  -5.3489  -5.3602  -5.3703  -5.3793  -5.3872  -5.3940  -5.3997  -5.4044  -5.4081  -5.4108  -5.4127  -5.4138  -5.4141  -5.4138  -5.4130  -5.4117  -5.4100  -5.4079  -5.4056  -5.4030  -5.4003  -5.3974  -5.3945  -5.3915  -5.3885  -5.3855  -5.3825  -5.3795  -5.3765  -5.3735  -5.3705  -5.3673  -5.3641  -5.3606  -5.3569  -5.3529  -5.3484  -5.3434  -5.3377  -5.3311  -5.3237  -5.3152  -5.3055  -5.2945  -5.2822  -5.2684  -5.2530  -5.2359  -5.2169  -5.1960  -5.1729  -5.1473  -5.1191  -5.0879  -5.0533  -5.0149  -4.9720  -4.9243  -4.8710  -4.8122  -4.7476  -4.6778  -4.6034  -4.5250  -4.4436  -4.3599  -4.2749  -4.1898  -4.1056  -4.0236  -3.9446  -3.8694  -3.7983  -3.7317  -3.6695  -3.6117  -3.5580  -3.5082  -3.4619  -3.4187  -3.3784  -3.3404  -3.3045  -3.2700
3.450  -5.3495  -5.3627  -5.3749  -5.3860  -5.3960  -5.4049  -5.4127  -5.4194  -5.4251  -5.4297  -5.4333  -5.4361  -5.4380  -5.4391  -5.4396  -5.4395  -5.4388  -5.4377  -5.4362  -5.4344  -5.4323  -5.4300  -5.4276  -5.4251  -5.4225  -5.4200  -5.4175  -5.4151  -5.4127  -5.4105  -5.4085  -5.4065  -5.4047  -5.4031  -5.4015  -5.4001  -5.3987  -5.3974  -5.3960  -5.3945  -5.3928  -5.3908  -5.3884  -5.3854  -5.3819  -5.3775  -5.3722  -5.3660  -5.3585  -5.3498  -5.3396  -5.3279  -5.3144  -5.2990  -5.2814  -5.2614  -5.2387  -5.2131  -5.1843  -5.1520  -5.1158  -5.0754  -5.0301  -4.9795  -4.9233  -4.8612  -4.7937  -4.7212  -4.6445  -4.5645  -4.4819  -4.3977  -4.3129  -4.2286  -4.1460  -4.0662  -3.9898  -3.9173  -3.8492  -3.7855  -3.7261  -3.6711  -3.6201  -3.5730  -3.5294  -3.4889  -3.4512  -3.4159  -3.3825  -3.3506  -3.3199
3.440  -5.4311  -5.4386  -5.4451  -5.4506  -5.4550  -5.4585  -5.4612  -5.4630  -5.4641  -5.4646  -5.4645  -5.4639  -5.4629  -5.4615  -5.4598  -5.4578  -5.4557  -5.4535  -5.4511  -5.4488  -5.4464  -5.4441  -5.4418  -5.4397  -5.4378  -5.4360  -5.4344  -5.4330  -5.4318  -5.4309  -5.4302  -5.4297  -5.4295  -5.4294  -5.4295  -5.4298  -5.4300  -5.4303  -5.4305  -5.4305  -5.4302  -5.4295  -5.4283  -5.4265  -5.4240  -5.4205  -5.4161  -5.4106  -5.4037  -5.3954  -5.3853  -5.3732  -5.3587  -5.3417  -5.3216  -5.2983  -5.2714  -5.2406  -5.2058  -5.1666  -5.1227  -5.0737  -5.0191  -4.9589  -4.8933  -4.8226  -4.7477  -4.6694  -4.5883  -4.5055  -4.4217  -4.3380  -4.2556  -4.1755  -4.0985  -4.0252  -3.9560  -3.8910  -3.8305  -3.7743  -3.7224  -3.6747  -3.6307  -3.5903  -3.5530  -3.5184  -3.4860  -3.4554  -3.4263  -3.3983  -3.3710
3.430  -5.4837  -5.4861  -5.4878  -5.4888  -5.4892  -5.4891  -5.4885  -5.4875  -5.4861  -5.4845  -5.4827  -5.4807  -5.4785  -5.4763  -5.4741  -5.4718  -5.4696  -5.4674  -5.4654  -5.4635  -5.4618  -5.4603  -5.4590  -5.4579  -5.4571  -5.4565  -5.4562  -5.4562  -5.4565  -5.4571  -5.4580  -5.4591  -5.4605  -5.4620  -5.4636  -5.4653  -5.4670  -5.4685  -5.4699  -5.4710  -5.4717  -5.4720  -5.4717  -5.4707  -5.4688  -5.4660  -5.4619  -5.4565  -5.4493  -5.4401  -5.4285  -5.4141  -5.3965  -5.3753  -5.3501  -5.3206  -5.2867  -5.2482  -5.2047  -5.1562  -5.1024  -5.0431  -4.9786  -4.9093  -4.8358  -4.7590  -4.6796  -4.5983  -4.5158  -4.4332  -4.3515  -4.2717  -4.1945  -4.1207  -4.0507  -3.9849  -3.9234  -3.8664  -3.8139  -3.7658  -3.7219  -3.6818  -3.6451  -3.6114  -3.5801  -3.5510  -3.5235  -3.4973  -3.4721  -3.4476  -3.4235
3.420  -5.5134  -5.5127  -5.5117  -5.5104  -5.5088  -5.5071  -5.5051  -5.5031  -5.5010  -5.4988  -5.4967  -5.4945  -5.4925  -5.4905  -5.4887  -5.4870  -5.4855  -5.4842  -5.4831  -5.4822  -5.4816  -5.4813  -5.4813  -5.4815  -5.4821  -5.4830  -5.4843  -5.4858  -5.4877  -5.4898  -5.4922  -5.4948  -5.4975  -5.5003  -5.5031  -5.5059  -5.5086  -5.5111  -5.5134  -5.5153  -5.5168  -5.5178  -5.5180  -5.5175  -5.5158  -5.5127  -5.5080  -5.5012  -5.4919  -5.4797  -5.4642  -5.4448  -5.4211  -5.3928  -5.3596  -5.3213  -5.2780  -5.2294  -5.1755  -5.1164  -5.0523  -4.9836  -4.9111  -4.8354  -4.7572  -4.6772  -4.5961  -4.5146  -4.4337  -4.3543  -4.2772  -4.2031  -4.1327  -4.0662  -4.0041  -3.9466  -3.8938  -3.8457  -3.8021  -3.7626  -3.7268  -3.6942  -3.6644  -3.6369  -3.6113  -3.5870  -3.5639  -3.5416  -3.5198  -3.4983  -3.4769
3.410  -5.5312  -5.5293  -5.5274  -5.5254  -5.5233  -5.5213  -5.5193  -5.5173  -5.5155  -5.5137  -5.5121  -5.5107  -5.5094  -5.5083  -5.5074  -5.5068  -5.5064  -5.5062  -5.5064  -5.5068  -5.5075  -5.5086  -5.5100  -5.5118  -5.5139  -5.5164  -5.5191  -5.5221  -5.5254  -5.5288  -5.5324  -5.5361  -5.5399  -5.5437  -5.5474  -5.5511  -5.5547  -5.5580  -5.5610  -5.5636  -5.5656  -5.5669  -5.5671  -5.5660  -5.5632  -5.5582  -5.5508  -5.5402  -5.5262  -5.5081  -5.4856  -5.4581  -5.4255  -5.3874  -5.3440  -5.2951  -5.2409  -5.1815  -5.1173  -5.0487  -4.9766  -4.9014  -4.8240  -4.7448  -4.6645  -4.5838  -4.5034  -4.4243  -4.3472  -4.2729  -4.2020  -4.1351  -4.0726  -4.0149  -3.9621  -3.9142  -3.8711  -3.8325  -3.7979  -3.7668  -3.7386  -3.7130  -3.6893  -3.6672  -3.6462  -3.6262  -3.6068  -3.5877  -3.5687  -3.5497  -3.5305
3.400  -5.5461  -5.5443  -5.5425  -5.5408  -5.5392  -5.5378  -5.5365  -5.5353  -5.5343  -5.5335  -5.5329  -5.5325  -5.5323  -5.5323  -5.5326  -5.5332  -5.5341  -5.5353  -5.5369  -5.5388  -5.5411  -5.5437  -5.5466  -5.5499  -5.5534  -5.5573  -5.5613  -5.5655  -5.5699  -5.5744  -5.5791  -5.5838  -5.5885  -5.5932  -5.5979  -5.6025  -5.6068  -5.6108  -5.6143  -5.6170  -5.6188  -5.6192  -5.6179  -5.6144  -5.6082  -5.5988  -5.5857  -5.5684  -5.5465  -5.5193  -5.4868  -5.4487  -5.4049  -5.3557  -5.3011  -5.2413  -5.1767  -5.1080  -5.0357  -4.9607  -4.8834  -4.8045  -4.7244  -4.6438  -4.5635  -4.4841  -4.4067  -4.3320  -4.2606  -4.1932  -4.1304  -4.0725  -4.0198  -3.9723  -3.9300  -3.8925  -3.8592  -3.8297  -3.8034  -3.7796  -3.7580  -3.7381  -3.7194  -3.7017  -3.6846  -3.6679  -3.6514  -3.6349  -3.6181  -3.6010  -3.5835
3.390  -5.5594  -5.5581  -5.5569  -5.5558  -5.5550  -5.5543  -5.5538  -5.5535  -5.5534  -5.5536  -5.5540  -5.5546  -5.5556  -5.5568  -5.5584  -5.5604  -5.5627  -5.5653  -5.5683  -5.5717  -5.5753  -5.5792  -5.5834  -5.5878  -5.5924  -5.5973  -5.6023  -5.6074  -5.6127  -5.6180  -5.6235  -5.6290  -5.6346  -5.6400  -5.6453  -5.6502  -5.6547  -5.6585  -5.6613  -5.6628  -5.6625  -5.6600  -5.6547  -5.6461  -5.6336  -5.6167  -5.5948  -5.5674  -5.5343  -5.4955  -5.4508  -5.4006  -5.3450  -5.2842  -5.2186  -5.1489  -5.0758  -5.0000  -4.9221  -4.8426  -4.7621  -4.6811  -4.6003  -4.5206  -4.4428  -4.3677  -4.2961  -4.2285  -4.1655  -4.1078  -4.0555  -4.0088  -3.9675  -3.9313  -3.8996  -3.8719  -3.8475  -3.8260  -3.8066  -3.7890  -3.7728  -3.7575  -3.7430  -3.7289  -3.7150  -3.7011  -3.6871  -3.6728  -3.6581  -3.6430  -3.6273
3.380  -5.5755  -5.5749  -5.5745  -5.5743  -5.5744  -5.5746  -5.5751  -5.5758  -5.5769  -5.5782  -5.5798  -5.5818  -5.5842  -5.5868  -5.5899  -5.5933  -5.5969  -5.6009  -5.6052  -5.6097  -5.6144  -5.6194  -5.6246  -5.6299  -5.6354  -5.6412  -5.6470  -5.6530  -5.6592  -5.6654  -5.6716  -5.6777  -5.6837  -5.6893  -5.6945  -5.6990  -5.7025  -5.7047  -5.7050  -5.7031  -5.6982  -5.6900  -5.6776  -5.6606  -5.6384  -5.6104  -5.5764  -5.5364  -5.4907  -5.4394  -5.3827  -5.3209  -5.2544  -5.1837  -5.1095  -5.0327  -4.9537  -4.8733  -4.7917  -4.7097  -4.6280  -4.5474  -4.4688  -4.3930  -4.3208  -4.2529  -4.1898  -4.1322  -4.0804  -4.0344  -3.9942  -3.9593  -3.9292  -3.9033  -3.8809  -3.8614  -3.8442  -3.8289  -3.8149  -3.8020  -3.7898  -3.7781  -3.7667  -3.7553  -3.7439  -3.7322  -3.7202  -3.7078  -3.6949  -3.6816  -3.6677
3.370  -5.5953  -5.5956  -5.5962  -5.5970  -5.5981  -5.5995  -5.6012  -5.6032  -5.6056  -5.6084  -5.6115  -5.6149  -5.6186  -5.6227  -5.6270  -5.6316  -5.6364  -5.6414  -5.6467  -5.6521  -5.6578  -5.6637  -5.6697  -5.6760  -5.6825  -5.6891  -5.6958  -5.7025  -5.7093  -5.7159  -5.7224  -5.7285  -5.7341  -5.7390  -5.7429  -5.7454  -5.7460  -5.7442  -5.7395  -5.7312  -5.7186  -5.7011  -5.6781  -5.6492  -5.6140  -5.5729  -5.5259  -5.4735  -5.4158  -5.3530  -5.2854  -5.2136  -5.1382  -5.0601  -4.9797  -4.8978  -4.8148  -4.7313  -4.6481  -4.5662  -4.4864  -4.4097  -4.3367  -4.2683  -4.2051  -4.1476  -4.0963  -4.0512  -4.0120  -3.9785  -3.9500  -3.9258  -3.9052  -3.8876  -3.8724  -3.8591  -3.8472  -3.8365  -3.8264  -3.8169  -3.8077  -3.7986  -3.7895  -3.7802  -3.7706  -3.7607  -3.7505  -3.7398  -3.7287  -3.7171  -3.7051
3.360  -5.6193  -5.6208  -5.6226  -5.6247  -5.6272  -5.6300  -5.6331  -5.6366  -5.6405  -5.6446  -5.6490  -5.6536  -5.6585  -5.6636  -5.6689  -5.6744  -5.6802  -5.6862  -5.6924  -5.6988  -5.7054  -5.7122  -5.7192  -5.7263  -5.7335  -5.7407  -5.7479  -5.7549  -5.7617  -5.7681  -5.7739  -5.7789  -5.7829  -5.7854  -5.7859  -5.7840  -5.7790  -5.7703  -5.7571  -5.7389  -5.7149  -5.6847  -5.6483  -5.6059  -5.5578  -5.5042  -5.4453  -5.3814  -5.3126  -5.2395  -5.1627  -5.0829  -5.0009  -4.9171  -4.8322  -4.7468  -4.6619  -4.5783  -4.4972  -4.4193  -4.3455  -4.2766  -4.2133  -4.1561  -4.1053  -4.0611  -4.0232  -3.9910  -3.9640  -3.9415  -3.9226  -3.9068  -3.8934  -3.8819  -3.8718  -3.8629  -3.8547  -3.8471  -3.8398  -3.8326  -3.8255  -3.8183  -3.8109  -3.8032  -3.7952  -3.7869  -3.7783  -3.7692  -3.7598  -3.7500  -3.7398
3.350  -5.6488  -5.6517  -5.6550  -5.6586  -5.6625  -5.6668  -5.6712  -5.6760  -5.6809  -5.6861  -5.6915  -5.6971  -5.7029  -5.7090  -5.7152  -5.7218  -5.7285  -5.7355  -5.7427  -5.7500  -5.7575  -5.7651  -5.7726  -5.7802  -5.7876  -5.7948  -5.8017  -5.8082  -5.8140  -5.8190  -5.8228  -5.8250  -5.8252  -5.8228  -5.8172  -5.8078  -5.7937  -5.7744  -5.7493  -5.7178  -5.6801  -5.6364  -5.5870  -5.5322  -5.4721  -5.4069  -5.3367  -5.2620  -5.1834  -5.1017  -5.0176  -4.9317  -4.8446  -4.7572  -4.6703  -4.5850  -4.5024  -4.4233  -4.3487  -4.2794  -4.2162  -4.1594  -4.1095  -4.0664  -4.0298  -3.9992  -3.9737  -3.9528  -3.9355  -3.9213  -3.9094  -3.8995  -3.8910  -3.8836  -3.8770  -3.8709  -3.8652  -3.8596  -3.8542  -3.8487  -3.8431  -3.8373  -3.8313  -3.8250  -3.8184  -3.8116  -3.8044  -3.7968  -3.7889  -3.7807  -3.7719
3.340  -5.6849  -5.6893  -5.6939  -5.6987  -5.7038  -5.7091  -5.7145  -5.7202  -5.7261  -5.7323  -5.7386  -5.7452  -5.7521  -5.7592  -5.7665  -5.7740  -5.7817  -5.7895  -5.7974  -5.8053  -5.8131  -5.8209  -5.8284  -5.8357  -5.8426  -5.8490  -5.8547  -5.8594  -5.8629  -5.8646  -5.8642  -5.8610  -5.8545  -5.8441  -5.8289  -5.8083  -5.7817  -5.7488  -5.7097  -5.6646  -5.6140  -5.5580  -5.4966  -5.4298  -5.3580  -5.2814  -5.2007  -5.1168  -5.0304  -4.9421  -4.8528  -4.7632  -4.6744  -4.5873  -4.5033  -4.4232  -4.3480  -4.2785  -4.2156  -4.1596  -4.1108  -4.0691  -4.0341  -4.0051  -3.9813  -3.9619  -3.9462  -3.9334  -3.9230  -3.9144  -3.9072  -3.9010  -3.8957  -3.8909  -3.8864  -3.8822  -3.8781  -3.8740  -3.8698  -3.8655  -3.8611  -3.8565  -3.8516  -3.8465  -3.8411  -3.8354  -3.8294  -3.8231  -3.8163  -3.8092  -3.8015
3.330  -5.7272  -5.7326  -5.7382  -5.7440  -5.7500  -5.7563  -5.7627  -5.7694  -5.7764  -5.7836  -5.7910  -5.7987  -5.8065  -5.8146  -5.8227  -5.8308  -5.8390  -5.8471  -5.8552  -5.8630  -5.8706  -5.8778  -5.8846  -5.8908  -5.8962  -5.9005  -5.9034  -5.9044  -5.9031  -5.8990  -5.8913  -5.8795  -5.8629  -5.8407  -5.8125  -5.7780  -5.7374  -5.6910  -5.6390  -5.5816  -5.5187  -5.4503  -5.3765  -5.2979  -5.2149  -5.1286  -5.0398  -4.9492  -4.8576  -4.7659  -4.6752  -4.5865  -4.5012  -4.4203  -4.3448  -4.2755  -4.2133  -4.1586  -4.1114  -4.0714  -4.0382  -4.0110  -3.9889  -3.9712  -3.9570  -3.9456  -3.9364  -3.9290  -3.9229  -3.9178  -3.9134  -3.9096  -3.9062  -3.9030  -3.8999  -3.8969  -3.8938  -3.8907  -3.8875  -3.8841  -3.8805  -3.8768  -3.8728  -3.8686  -3.8640  -3.8592  -3.8540  -3.8484  -3.8424  -3.8358  -3.8288
3.320  -5.7748  -5.7811  -5.7877  -5.7946  -5.8017  -5.8090  -5.8166  -5.8244  -5.8324  -5.8405  -5.8489  -5.8573  -5.8657  -5.8742  -5.8826  -5.8908  -5.8989  -5.9068  -5.9143  -5.9214  -5.9280  -5.9339  -5.9389  -5.9426  -5.9447  -5.9448  -5.9424  -5.9370  -5.9279  -5.9145  -5.8961  -5.8721  -5.8420  -5.8058  -5.7636  -5.7156  -5.6622  -5.6033  -5.5388  -5.4686  -5.3929  -5.3121  -5.2269  -5.1382  -5.0471  -4.9542  -4.8604  -4.7668  -4.6743  -4.5843  -4.4980  -4.4166  -4.3412  -4.2727  -4.2118  -4.1587  -4.1135  -4.0757  -4.0446  -4.0194  -3.9992  -3.9831  -3.9704  -3.9603  -3.9523  -3.9459  -3.9407  -3.9365  -3.9330  -3.9299  -3.9272  -3.9248  -3.9225  -3.9203  -3.9180  -3.9158  -3.9134  -3.9110  -3.9084  -3.9056  -3.9027  -3.8995  -3.8960  -3.8922  -3.8882  -3.8837  -3.8788  -3.8735  -3.8677  -3.8614  -3.8545
3.310  -5.8283  -5.8357  -5.8435  -5.8514  -5.8596  -5.8680  -5.8765  -5.8851  -5.8938  -5.9026  -5.9113  -5.9200  -5.9285  -5.9369  -5.9450  -5.9528  -5.9603  -5.9672  -5.9735  -5.9790  -5.9833  -5.9863  -5.9874  -5.9863  -5.9825  -5.9755  -5.9647  -5.9494  -5.9291  -5.9031  -5.8711  -5.8330  -5.7890  -5.7395  -5.6845  -5.6241  -5.5580  -5.4861  -5.4086  -5.3259  -5.2387  -5.1480  -5.0547  -4.9597  -4.8640  -4.7685  -4.6746  -4.5834  -4.4965  -4.4152  -4.3405  -4.2734  -4.2144  -4.1637  -4.1209  -4.0856  -4.0569  -4.0339  -4.0157  -4.0012  -3.9899  -3.9811  -3.9741  -3.9686  -3.9642  -3.9607  -3.9578  -3.9553  -3.9532  -3.9513  -3.9496  -3.9479  -3.9462  -3.9445  -3.9428  -3.9410  -3.9390  -3.9369  -3.9346  -3.9320  -3.9293  -3.9262  -3.9228  -3.9191  -3.9150  -3.9104  -3.9054  -3.8999  -3.8939  -3.8874  -3.8802
3.300  -5.8893  -5.8979  -5.9066  -5.9155  -5.9245  -5.9335  -5.9426  -5.9517  -5.9607  -5.9695  -5.9782  -5.9867  -5.9949  -6.0027  -6.0101  -6.0168  -6.0227  -6.0276  -6.0312  -6.0330  -6.0329  -6.0303  -6.0248  -6.0160  -6.0033  -5.9860  -5.9637  -5.9357  -5.9017  -5.8618  -5.8162  -5.7651  -5.7086  -5.6468  -5.5795  -5.5065  -5.4280  -5.3443  -5.2560  -5.1641  -5.0694  -4.9729  -4.8755  -4.7786  -4.6835  -4.5916  -4.5046  -4.4238  -4.3505  -4.2854  -4.2289  -4.1810  -4.1411  -4.1086  -4.0825  -4.0617  -4.0453  -4.0325  -4.0225  -4.0148  -4.0087  -4.0039  -4.0001  -3.9971  -3.9946  -3.9926  -3.9908  -3.9892  -3.9878  -3.9863  -3.9850  -3.9835  -3.9820  -3.9804  -3.9787  -3.9768  -3.9747  -3.9724  -3.9698  -3.9669  -3.9637  -3.9602  -3.9563  -3.9519  -3.9472  -3.9420  -3.9363  -3.9301  -3.9234  -3.9161  -3.9082
3.290  -5.9504  -5.9596  -5.9688  -5.9780  -5.9871  -5.9962  -6.0051  -6.0138  -6.0223  -6.0305  -6.0384  -6.0457  -6.0524  -6.0584  -6.0633  -6.0670  -6.0691  -6.0692  -6.0671  -6.0623  -6.0544  -6.0430  -6.0273  -6.0070  -5.9813  -5.9499  -5.9125  -5.8694  -5.8206  -5.7665  -5.7071  -5.6423  -5.5719  -5.4958  -5.4141  -5.3272  -5.2359  -5.1411  -5.0437  -4.9448  -4.8455  -4.7471  -4.6514  -4.5597  -4.4739  -4.3952  -4.3247  -4.2630  -4.2103  -4.1663  -4.1302  -4.1011  -4.0779  -4.0597  -4.0455  -4.0345  -4.0260  -4.0194  -4.0142  -4.0103  -4.0072  -4.0047  -4.0028  -4.0012  -3.9998  -3.9987  -3.9976  -3.9966  -3.9956  -3.9946  -3.9936  -3.9925  -3.9912  -3.9899  -3.9884  -3.9866  -3.9847  -3.9825  -3.9800  -3.9771  -3.9739  -3.9704  -3.9664  -3.9619  -3.9570  -3.9517  -3.9458  -3.9395  -3.9326  -3.9251  -3.9170
3.280  -6.0144  -6.0236  -6.0327  -6.0417  -6.0504  -6.0589  -6.0670  -6.0748  -6.0820  -6.0886  -6.0943  -6.0991  -6.1027  -6.1047  -6.1050  -6.1030  -6.0986  -6.0913  -6.0806  -6.0662  -6.0474  -6.0236  -5.9943  -5.9592  -5.9183  -5.8717  -5.8197  -5.7624  -5.6997  -5.6316  -5.5577  -5.4781  -5.3929  -5.3027  -5.2082  -5.1105  -5.0105  -4.9094  -4.8086  -4.7095  -4.6140  -4.5237  -4.4401  -4.3647  -4.2983  -4.2411  -4.1930  -4.1535  -4.1215  -4.0961  -4.0761  -4.0605  -4.0484  -4.0391  -4.0319  -4.0264  -4.0222  -4.0189  -4.0164  -4.0145  -4.0129  -4.0117  -4.0107  -4.0098  -4.0091  -4.0084  -4.0077  -4.0070  -4.0063  -4.0055  -4.0047  -4.0037  -4.0026  -4.0013  -3.9999  -3.9982  -3.9962  -3.9940  -3.9914  -3.9885  -3.9851  -3.9814  -3.9772  -3.9725  -3.9674  -3.9618  -3.9557  -3.9490  -3.9418  -3.9340  -3.9256
3.270  -6.0793  -6.0880  -6.0964  -6.1044  -6.1119  -6.1189  -6.1251  -6.1305  -6.1349  -6.1382  -6.1399  -6.1400  -6.1380  -6.1336  -6.1266  -6.1165  -6.1029  -6.0852  -6.0629  -6.0355  -6.0024  -5.9635  -5.9189  -5.8687  -5.8132  -5.7525  -5.6863  -5.6145  -5.5368  -5.4534  -5.3644  -5.2706  -5.1729  -5.0723  -4.9699  -4.8672  -4.7656  -4.6668  -4.5726  -4.4849  -4.4052  -4.3344  -4.2731  -4.2214  -4.1787  -4.1441  -4.1165  -4.0948  -4.0780  -4.0649  -4.0549  -4.0472  -4.0413  -4.0368  -4.0334  -4.0307  -4.0287  -4.0272  -4.0260  -4.0250  -4.0243  -4.0236  -4.0231  -4.0226  -4.0222  -4.0217  -4.0212  -4.0207  -4.0201  -4.0194  -4.0186  -4.0177  -4.0166  -4.0153  -4.0138  -4.0121  -4.0100  -4.0076  -4.0049  -4.0017  -3.9982  -3.9941  -3.9896  -3.9847  -3.9792  -3.9732  -3.9667  -3.9597  -3.9521  -3.9439  -3.9351
3.260  -6.1424  -6.1496  -6.1561  -6.1618  -6.1667  -6.1705  -6.1732  -6.1745  -6.1742  -6.1719  -6.1675  -6.1605  -6.1507  -6.1377  -6.1209  -6.0998  -6.0738  -6.0424  -6.0053  -5.9625  -5.9141  -5.8603  -5.8012  -5.7368  -5.6667  -5.5908  -5.5090  -5.4214  -5.3285  -5.2311  -5.1303  -5.0271  -4.9228  -4.8192  -4.7177  -4.6205  -4.5292  -4.4457  -4.3712  -4.3064  -4.2515  -4.2061  -4.1692  -4.1398  -4.1166  -4.0986  -4.0847  -4.0740  -4.0659  -4.0597  -4.0549  -4.0513  -4.0486  -4.0465  -4.0449  -4.0437  -4.0428  -4.0421  -4.0415  -4.0410  -4.0407  -4.0403  -4.0400  -4.0397  -4.0394  -4.0390  -4.0386  -4.0381  -4.0375  -4.0369  -4.0361  -4.0351  -4.0340  -4.0326  -4.0310  -4.0290  -4.0268  -4.0242  -4.0212  -4.0178  -4.0139  -4.0095  -4.0046  -3.9992  -3.9934  -3.9869  -3.9800  -3.9724  -3.9644  -3.9557  -3.9464
3.250  -6.1984  -6.2025  -6.2057  -6.2076  -6.2083  -6.2074  -6.2048  -6.2001  -6.1931  -6.1834  -6.1707  -6.1546  -6.1344  -6.1096  -6.0797  -6.0442  -6.0031  -5.9563  -5.9040  -5.8465  -5.7835  -5.7150  -5.6407  -5.5604  -5.4742  -5.3823  -5.2854  -5.1846  -5.0808  -4.9756  -4.8703  -4.7668  -4.6670  -4.5729  -4.4864  -4.4088  -4.3412  -4.2837  -4.2359  -4.1972  -4.1663  -4.1421  -4.1232  -4.1086  -4.0975  -4.0890  -4.0825  -4.0776  -4.0738  -4.0710  -4.0689  -4.0672  -4.0660  -4.0651  -4.0644  -4.0638  -4.0634  -4.0631  -4.0628  -4.0626  -4.0624  -4.0621  -4.0619  -4.0617  -4.0614  -4.0610  -4.0606  -4.0601  -4.0595  -4.0588  -4.0579  -4.0569  -4.0556  -4.0540  -4.0522  -4.0501  -4.0476  -4.0447  -4.0413  -4.0375  -4.0332  -4.0284  -4.0231  -4.0172  -4.0108  -4.0038  -3.9963  -3.9882  -3.9796  -3.9703  -3.9604
3.240  -6.2412  -6.2412  -6.2398  -6.2367  -6.2317  -6.2245  -6.2148  -6.2023  -6.1866  -6.1671  -6.1432  -6.1146  -6.0806  -6.0410  -5.9957  -5.9449  -5.8888  -5.8272  -5.7601  -5.6872  -5.6083  -5.5234  -5.4325  -5.3364  -5.2358  -5.1318  -5.0259  -4.9195  -4.8145  -4.7128  -4.6165  -4.5276  -4.4477  -4.3779  -4.3185  -4.2691  -4.2291  -4.1972  -4.1722  -4.1528  -4.1378  -4.1264  -4.1177  -4.1111  -4.1060  -4.1022  -4.0993  -4.0972  -4.0955  -4.0943  -4.0933  -4.0926  -4.0921  -4.0917  -4.0914  -4.0912  -4.0910  -4.0908  -4.0907  -4.0905  -4.0904  -4.0902  -4.0900  -4.0897  -4.0894  -4.0890  -4.0886  -4.0880  -4.0873  -4.0865  -4.0855  -4.0842  -4.0827  -4.0810  -4.0789  -4.0764  -4.0735  -4.0702  -4.0664  -4.0621  -4.0573  -4.0520  -4.0460  -4.0395  -4.0325  -4.0249  -4.0167  -4.0080  -3.9986  -3.9887  -3.9781
3.230  -6.2677  -6.2623  -6.2548  -6.2450  -6.2326  -6.2171  -6.1981  -6.1751  -6.1475  -6.1149  -6.0767  -6.0330  -5.9836  -5.9288  -5.8686  -5.8028  -5.7312  -5.6537  -5.5700  -5.4803  -5.3851  -5.2850  -5.1812  -5.0750  -4.9680  -4.8619  -4.7589  -4.6611  -4.5707  -4.4892  -4.4180  -4.3574  -4.3072  -4.2665  -4.2341  -4.2088  -4.1892  -4.1742  -4.1627  -4.1540  -4.1473  -4.1423  -4.1385  -4.1356  -4.1334  -4.1318  -4.1306  -4.1296  -4.1289  -4.1284  -4.1280  -4.1277  -4.1275  -4.1273  -4.1272  -4.1271  -4.1270  -4.1269  -4.1268  -4.1266  -4.1265  -4.1263  -4.1261  -4.1258  -4.1254  -4.1249  -4.1244  -4.1237  -4.1228  -4.1218  -4.1205  -4.1190  -4.1172  -4.1151  -4.1126  -4.1096  -4.1063  -4.1024  -4.0980  -4.0930  -4.0875  -4.0814  -4.0748  -4.0675  -4.0597  -4.0513  -4.0423  -4.0327  -4.0225  -4.0117  -4.0002
3.220  -6.2744  -6.2619  -6.2466  -6.2281  -6.2058  -6.1792  -6.1478  -6.1111  -6.0689  -6.0211  -5.9677  -5.9088  -5.8443  -5.7742  -5.6980  -5.6158  -5.5275  -5.4335  -5.3345  -5.2314  -5.1255  -5.0184  -4.9119  -4.8083  -4.7098  -4.6186  -4.5365  -4.4648  -4.4038  -4.3535  -4.3129  -4.2807  -4.2555  -4.2362  -4.2213  -4.2100  -4.2015  -4.1950  -4.1900  -4.1863  -4.1835  -4.1814  -4.1798  -4.1786  -4.1777  -4.1770  -4.1765  -4.1761  -4.1758  -4.1756  -4.1755  -4.1754  -4.1753  -4.1752  -4.1751  -4.1750  -4.1750  -4.1748  -4.1747  -4.1745  -4.1743  -4.1741  -4.1738  -4.1733  -4.1728  -4.1722  -4.1714  -4.1705  -4.1693  -4.1680  -4.1663  -4.1643  -4.1620  -4.1592  -4.1560  -4.1524  -4.1482  -4.1435  -4.1382  -4.1323  -4.1259  -4.1188  -4.1111  -4.1029  -4.0940  -4.0845  -4.0744  -4.0638  -4.0525  -4.0406  -4.0280
3.210  -6.2576  -6.2360  -6.2104  -6.1803  -6.1452  -6.1047  -6.0587  -6.0070  -5.9498  -5.8870  -5.8185  -5.7442  -5.6640  -5.5778  -5.4859  -5.3889  -5.2877  -5.1834  -5.0775  -4.9718  -4.8687  -4.7705  -4.6796  -4.5978  -4.5266  -4.4663  -4.4167  -4.3769  -4.3455  -4.3211  -4.3023  -4.2880  -4.2772  -4.2690  -4.2628  -4.2581  -4.2545  -4.2518  -4.2498  -4.2483  -4.2472  -4.2463  -4.2457  -4.2452  -4.2448  -4.2446  -4.2444  -4.2443  -4.2442  -4.2441  -4.2440  -4.2440  -4.2439  -4.2439  -4.2438  -4.2437  -4.2435  -4.2433  -4.2431  -4.2428  -4.2425  -4.2420  -4.2414  -4.2407  -4.2399  -4.2388  -4.2375  -4.2360  -4.2342  -4.2320  -4.2294  -4.2264  -4.2229  -4.2190  -4.2145  -4.2095  -4.2040  -4.1978  -4.1911  -4.1838  -4.1758  -4.1673  -4.1582  -4.1484  -4.1381  -4.1271  -4.1156  -4.1035  -4.0907  -4.0773  -4.0633
3.200  -6.2142  -6.1811  -6.1430  -6.0996  -6.0506  -5.9960  -5.9358  -5.8701  -5.7989  -5.7222  -5.6401  -5.5530  -5.4614  -5.3662  -5.2684  -5.1693  -5.0702  -4.9731  -4.8799  -4.7932  -4.7149  -4.6465  -4.5888  -4.5414  -4.5035  -4.4738  -4.4509  -4.4333  -4.4200  -4.4100  -4.4024  -4.3967  -4.3924  -4.3892  -4.3868  -4.3850  -4.3837  -4.3828  -4.3821  -4.3816  -4.3813  -4.3810  -4.3809  -4.3808  -4.3808  -4.3808  -4.3808  -4.3808  -4.3808  -4.3807  -4.3806  -4.3804  -4.3802  -4.3799  -4.3794  -4.3789  -4.3781  -4.3772  -4.3761  -4.3747  -4.3730  -4.3710  -4.3686  -4.3658  -4.3625  -4.3587  -4.3544  -4.3496  -4.3443  -4.3384  -4.3321  -4.3254  -4.3182  -4.3105  -4.3025  -4.2940  -4.2852  -4.2759  -4.2662  -4.2560  -4.2453  -4.2342  -4.2225  -4.2103  -4.1975  -4.1843  -4.1704  -4.1560  -4.1411  -4.1255  -4.1093
#
# AESOPUS computation completed
